transmittance,probability_density
2.157e-04,2.652e-24
6.472e-04,2.407e-18
1.079e-03,1.418e-15
1.510e-03,9.474e-14
1.942e-03,2.185e-12
2.373e-03,2.678e-11
2.805e-03,2.156e-10
3.236e-03,1.288e-09
3.668e-03,6.145e-09
4.099e-03,2.465e-08
4.530e-03,8.600e-08
4.962e-03,2.678e-07
5.393e-03,7.587e-07
5.825e-03,1.984e-06
6.256e-03,4.841e-06
6.688e-03,1.113e-05
7.119e-03,2.431e-05
7.551e-03,5.068e-05
7.982e-03,1.014e-04
8.414e-03,1.957e-04
8.845e-03,3.655e-04
9.277e-03,6.625e-04
9.708e-03,1.169e-03
1.014e-02,2.012e-03
1.057e-02,3.385e-03
1.100e-02,5.579e-03
1.143e-02,9.019e-03
1.187e-02,1.432e-02
1.230e-02,2.237e-02
1.273e-02,3.441e-02
1.316e-02,5.218e-02
1.359e-02,7.807e-02
1.402e-02,1.153e-01
1.445e-02,1.684e-01
1.489e-02,2.431e-01
1.532e-02,3.474e-01
1.575e-02,4.914e-01
1.618e-02,6.887e-01
1.661e-02,9.567e-01
1.704e-02,1.318e+00
1.747e-02,1.801e+00
1.791e-02,2.442e+00
1.834e-02,3.287e+00
1.877e-02,4.395e+00
1.920e-02,5.837e+00
1.963e-02,7.704e+00
2.006e-02,1.011e+01
2.050e-02,1.318e+01
2.093e-02,1.710e+01
2.136e-02,2.206e+01
2.179e-02,2.832e+01
2.222e-02,3.618e+01
2.265e-02,4.600e+01
2.308e-02,5.823e+01
2.352e-02,7.338e+01
2.395e-02,9.208e+01
2.438e-02,1.151e+02
2.481e-02,1.433e+02
2.524e-02,1.777e+02
2.567e-02,2.196e+02
2.610e-02,2.704e+02
2.654e-02,3.318e+02
2.697e-02,4.058e+02
2.740e-02,0.000e+00
2.783e-02,0.000e+00
2.826e-02,0.000e+00
2.869e-02,0.000e+00
2.912e-02,0.000e+00
2.956e-02,0.000e+00
2.999e-02,0.000e+00
3.042e-02,0.000e+00
3.085e-02,0.000e+00
3.128e-02,0.000e+00
3.171e-02,0.000e+00
3.214e-02,0.000e+00
3.258e-02,0.000e+00
3.301e-02,0.000e+00
3.344e-02,0.000e+00
3.387e-02,0.000e+00
3.430e-02,0.000e+00
3.473e-02,0.000e+00
3.517e-02,0.000e+00
3.560e-02,0.000e+00
3.603e-02,0.000e+00
3.646e-02,0.000e+00
3.689e-02,0.000e+00
3.732e-02,0.000e+00
3.775e-02,0.000e+00
3.819e-02,0.000e+00
3.862e-02,0.000e+00
3.905e-02,0.000e+00
3.948e-02,0.000e+00
3.991e-02,0.000e+00
4.034e-02,0.000e+00
4.077e-02,0.000e+00
4.121e-02,0.000e+00
4.164e-02,0.000e+00
4.207e-02,0.000e+00
4.250e-02,0.000e+00
4.293e-02,0.000e+00
4.336e-02,0.000e+00
4.379e-02,0.000e+00
4.423e-02,0.000e+00
4.466e-02,0.000e+00
4.509e-02,0.000e+00
4.552e-02,0.000e+00
4.595e-02,0.000e+00
4.638e-02,0.000e+00
4.682e-02,0.000e+00
4.725e-02,0.000e+00
4.768e-02,0.000e+00
4.811e-02,0.000e+00
4.854e-02,0.000e+00
4.897e-02,0.000e+00
4.940e-02,0.000e+00
4.984e-02,0.000e+00
5.027e-02,0.000e+00
5.070e-02,0.000e+00
5.113e-02,0.000e+00
5.156e-02,0.000e+00
5.199e-02,0.000e+00
5.242e-02,0.000e+00
5.286e-02,0.000e+00
5.329e-02,0.000e+00
5.372e-02,0.000e+00
5.415e-02,0.000e+00
5.458e-02,0.000e+00
5.501e-02,0.000e+00
5.544e-02,0.000e+00
5.588e-02,0.000e+00
5.631e-02,0.000e+00
5.674e-02,0.000e+00
5.717e-02,0.000e+00
5.760e-02,0.000e+00
5.803e-02,0.000e+00
5.846e-02,0.000e+00
5.890e-02,0.000e+00
5.933e-02,0.000e+00
5.976e-02,0.000e+00
6.019e-02,0.000e+00
6.062e-02,0.000e+00
6.105e-02,0.000e+00
6.149e-02,0.000e+00
6.192e-02,0.000e+00
6.235e-02,0.000e+00
6.278e-02,0.000e+00
6.321e-02,0.000e+00
6.364e-02,0.000e+00
6.407e-02,0.000e+00
6.451e-02,0.000e+00
6.494e-02,0.000e+00
6.537e-02,0.000e+00
6.580e-02,0.000e+00
6.623e-02,0.000e+00
6.666e-02,0.000e+00
6.709e-02,0.000e+00
6.753e-02,0.000e+00
6.796e-02,0.000e+00
6.839e-02,0.000e+00
6.882e-02,0.000e+00
6.925e-02,0.000e+00
6.968e-02,0.000e+00
7.011e-02,0.000e+00
7.055e-02,0.000e+00
7.098e-02,0.000e+00
7.141e-02,0.000e+00
7.184e-02,0.000e+00
7.227e-02,0.000e+00
7.270e-02,0.000e+00
7.314e-02,0.000e+00
7.357e-02,0.000e+00
7.400e-02,0.000e+00
7.443e-02,0.000e+00
7.486e-02,0.000e+00
7.529e-02,0.000e+00
7.572e-02,0.000e+00
7.616e-02,0.000e+00
7.659e-02,0.000e+00
7.702e-02,0.000e+00
7.745e-02,0.000e+00
7.788e-02,0.000e+00
7.831e-02,0.000e+00
7.874e-02,0.000e+00
7.918e-02,0.000e+00
7.961e-02,0.000e+00
8.004e-02,0.000e+00
8.047e-02,0.000e+00
8.090e-02,0.000e+00
8.133e-02,0.000e+00
8.176e-02,0.000e+00
8.220e-02,0.000e+00
8.263e-02,0.000e+00
8.306e-02,0.000e+00
8.349e-02,0.000e+00
8.392e-02,0.000e+00
8.435e-02,0.000e+00
8.478e-02,0.000e+00
8.522e-02,0.000e+00
8.565e-02,0.000e+00
8.608e-02,0.000e+00
