transmittance,probability_density
2.507e-04,5.886e-06
7.522e-04,2.145e-04
1.254e-03,1.142e-03
1.755e-03,3.435e-03
2.257e-03,7.819e-03
2.758e-03,1.508e-02
3.260e-03,2.605e-02
3.761e-03,4.162e-02
4.263e-03,6.269e-02
4.764e-03,9.021e-02
5.266e-03,1.252e-01
5.767e-03,1.686e-01
6.269e-03,2.215e-01
6.770e-03,2.850e-01
7.272e-03,3.600e-01
7.773e-03,4.479e-01
8.275e-03,5.496e-01
8.776e-03,6.663e-01
9.278e-03,7.992e-01
9.779e-03,9.495e-01
1.028e-02,1.118e+00
1.078e-02,1.307e+00
1.128e-02,1.517e+00
1.179e-02,1.749e+00
1.229e-02,2.004e+00
1.279e-02,2.285e+00
1.329e-02,2.591e+00
1.379e-02,2.925e+00
1.429e-02,3.288e+00
1.479e-02,3.681e+00
1.530e-02,4.105e+00
1.580e-02,4.562e+00
1.630e-02,5.054e+00
1.680e-02,5.581e+00
1.730e-02,6.145e+00
1.780e-02,6.747e+00
1.830e-02,7.389e+00
1.881e-02,8.073e+00
1.931e-02,8.799e+00
1.981e-02,9.570e+00
2.031e-02,1.039e+01
2.081e-02,1.125e+01
2.131e-02,1.216e+01
2.181e-02,1.312e+01
2.232e-02,1.414e+01
2.282e-02,1.520e+01
2.332e-02,1.632e+01
2.382e-02,1.750e+01
2.432e-02,1.874e+01
2.482e-02,2.003e+01
2.533e-02,2.139e+01
2.583e-02,2.280e+01
2.633e-02,2.428e+01
2.683e-02,2.583e+01
2.733e-02,2.745e+01
2.783e-02,2.913e+01
2.833e-02,3.088e+01
2.884e-02,3.271e+01
2.934e-02,3.461e+01
2.984e-02,3.658e+01
3.034e-02,3.863e+01
3.084e-02,4.076e+01
3.134e-02,4.297e+01
3.184e-02,4.526e+01
3.235e-02,4.764e+01
3.285e-02,5.010e+01
3.335e-02,5.264e+01
3.385e-02,5.528e+01
3.435e-02,5.801e+01
3.485e-02,6.082e+01
3.536e-02,6.374e+01
3.586e-02,6.674e+01
3.636e-02,6.985e+01
3.686e-02,7.305e+01
3.736e-02,7.635e+01
3.786e-02,7.976e+01
3.836e-02,8.327e+01
3.887e-02,8.689e+01
3.937e-02,9.061e+01
3.987e-02,9.444e+01
4.037e-02,9.839e+01
4.087e-02,1.024e+02
4.137e-02,0.000e+00
4.187e-02,0.000e+00
4.238e-02,0.000e+00
4.288e-02,0.000e+00
4.338e-02,0.000e+00
4.388e-02,0.000e+00
4.438e-02,0.000e+00
4.488e-02,0.000e+00
4.538e-02,0.000e+00
4.589e-02,0.000e+00
4.639e-02,0.000e+00
4.689e-02,0.000e+00
4.739e-02,0.000e+00
4.789e-02,0.000e+00
4.839e-02,0.000e+00
4.890e-02,0.000e+00
4.940e-02,0.000e+00
4.990e-02,0.000e+00
5.040e-02,0.000e+00
5.090e-02,0.000e+00
5.140e-02,0.000e+00
5.190e-02,0.000e+00
5.241e-02,0.000e+00
5.291e-02,0.000e+00
5.341e-02,0.000e+00
5.391e-02,0.000e+00
5.441e-02,0.000e+00
5.491e-02,0.000e+00
5.541e-02,0.000e+00
5.592e-02,0.000e+00
5.642e-02,0.000e+00
5.692e-02,0.000e+00
5.742e-02,0.000e+00
5.792e-02,0.000e+00
5.842e-02,0.000e+00
5.893e-02,0.000e+00
5.943e-02,0.000e+00
5.993e-02,0.000e+00
6.043e-02,0.000e+00
6.093e-02,0.000e+00
6.143e-02,0.000e+00
6.193e-02,0.000e+00
6.244e-02,0.000e+00
6.294e-02,0.000e+00
6.344e-02,0.000e+00
6.394e-02,0.000e+00
6.444e-02,0.000e+00
6.494e-02,0.000e+00
6.544e-02,0.000e+00
6.595e-02,0.000e+00
6.645e-02,0.000e+00
6.695e-02,0.000e+00
6.745e-02,0.000e+00
6.795e-02,0.000e+00
6.845e-02,0.000e+00
6.895e-02,0.000e+00
6.946e-02,0.000e+00
6.996e-02,0.000e+00
7.046e-02,0.000e+00
7.096e-02,0.000e+00
7.146e-02,0.000e+00
7.196e-02,0.000e+00
7.247e-02,0.000e+00
7.297e-02,0.000e+00
7.347e-02,0.000e+00
7.397e-02,0.000e+00
7.447e-02,0.000e+00
7.497e-02,0.000e+00
7.547e-02,0.000e+00
7.598e-02,0.000e+00
7.648e-02,0.000e+00
7.698e-02,0.000e+00
7.748e-02,0.000e+00
7.798e-02,0.000e+00
7.848e-02,0.000e+00
7.898e-02,0.000e+00
7.949e-02,0.000e+00
7.999e-02,0.000e+00
8.049e-02,0.000e+00
8.099e-02,0.000e+00
8.149e-02,0.000e+00
8.199e-02,0.000e+00
8.250e-02,0.000e+00
8.300e-02,0.000e+00
8.350e-02,0.000e+00
8.400e-02,0.000e+00
8.450e-02,0.000e+00
8.500e-02,0.000e+00
8.550e-02,0.000e+00
8.601e-02,0.000e+00
8.651e-02,0.000e+00
8.701e-02,0.000e+00
8.751e-02,0.000e+00
8.801e-02,0.000e+00
8.851e-02,0.000e+00
8.901e-02,0.000e+00
8.952e-02,0.000e+00
9.002e-02,0.000e+00
9.052e-02,0.000e+00
9.102e-02,0.000e+00
9.152e-02,0.000e+00
9.202e-02,0.000e+00
9.252e-02,0.000e+00
9.303e-02,0.000e+00
9.353e-02,0.000e+00
9.403e-02,0.000e+00
9.453e-02,0.000e+00
9.503e-02,0.000e+00
9.553e-02,0.000e+00
9.604e-02,0.000e+00
9.654e-02,0.000e+00
9.704e-02,0.000e+00
9.754e-02,0.000e+00
9.804e-02,0.000e+00
9.854e-02,0.000e+00
9.904e-02,0.000e+00
9.955e-02,0.000e+00
1.000e-01,0.000e+00
