transmittance,probability_density
6.281e-04,7.902e-07
1.884e-03,3.444e-05
3.141e-03,1.992e-04
4.397e-03,6.331e-04
5.653e-03,1.501e-03
6.909e-03,2.992e-03
8.165e-03,5.312e-03
9.421e-03,8.686e-03
1.068e-02,1.335e-02
1.193e-02,1.957e-02
1.319e-02,2.760e-02
1.445e-02,3.773e-02
1.570e-02,5.025e-02
1.696e-02,6.546e-02
1.821e-02,8.368e-02
1.947e-02,1.052e-01
2.073e-02,1.305e-01
2.198e-02,1.597e-01
2.324e-02,1.933e-01
2.450e-02,2.316e-01
2.575e-02,2.750e-01
2.701e-02,3.239e-01
2.826e-02,3.787e-01
2.952e-02,4.398e-01
3.078e-02,5.075e-01
3.203e-02,5.823e-01
3.329e-02,6.645e-01
3.455e-02,7.547e-01
3.580e-02,8.533e-01
3.706e-02,9.607e-01
3.831e-02,1.077e+00
3.957e-02,1.204e+00
4.083e-02,1.340e+00
4.208e-02,1.487e+00
4.334e-02,1.645e+00
4.460e-02,1.815e+00
4.585e-02,1.997e+00
4.711e-02,2.191e+00
4.836e-02,2.399e+00
4.962e-02,2.620e+00
5.088e-02,2.855e+00
5.213e-02,3.104e+00
5.339e-02,3.369e+00
5.464e-02,3.649e+00
5.590e-02,3.946e+00
5.716e-02,4.259e+00
5.841e-02,4.589e+00
5.967e-02,4.937e+00
6.093e-02,5.304e+00
6.218e-02,5.689e+00
6.344e-02,6.094e+00
6.469e-02,6.519e+00
6.595e-02,6.964e+00
6.721e-02,7.431e+00
6.846e-02,7.919e+00
6.972e-02,8.430e+00
7.098e-02,8.963e+00
7.223e-02,9.520e+00
7.349e-02,1.010e+01
7.474e-02,1.071e+01
7.600e-02,1.134e+01
7.726e-02,1.200e+01
7.851e-02,1.268e+01
7.977e-02,1.339e+01
8.102e-02,1.413e+01
8.228e-02,1.490e+01
8.354e-02,1.569e+01
8.479e-02,1.652e+01
8.605e-02,1.738e+01
8.731e-02,1.826e+01
8.856e-02,1.918e+01
8.982e-02,2.013e+01
9.107e-02,2.112e+01
9.233e-02,2.214e+01
9.359e-02,2.319e+01
9.484e-02,2.428e+01
9.610e-02,2.540e+01
9.736e-02,2.656e+01
9.861e-02,2.776e+01
9.987e-02,2.899e+01
1.011e-01,3.026e+01
1.024e-01,3.158e+01
1.036e-01,3.293e+01
1.049e-01,3.432e+01
1.061e-01,3.575e+01
1.074e-01,3.723e+01
1.087e-01,3.875e+01
1.099e-01,4.032e+01
1.112e-01,0.000e+00
1.124e-01,0.000e+00
1.137e-01,0.000e+00
1.149e-01,0.000e+00
1.162e-01,0.000e+00
1.175e-01,0.000e+00
1.187e-01,0.000e+00
1.200e-01,0.000e+00
1.212e-01,0.000e+00
1.225e-01,0.000e+00
1.237e-01,0.000e+00
1.250e-01,0.000e+00
1.262e-01,0.000e+00
1.275e-01,0.000e+00
1.288e-01,0.000e+00
1.300e-01,0.000e+00
1.313e-01,0.000e+00
1.325e-01,0.000e+00
1.338e-01,0.000e+00
1.350e-01,0.000e+00
1.363e-01,0.000e+00
1.376e-01,0.000e+00
1.388e-01,0.000e+00
1.401e-01,0.000e+00
1.413e-01,0.000e+00
1.426e-01,0.000e+00
1.438e-01,0.000e+00
1.451e-01,0.000e+00
1.463e-01,0.000e+00
1.476e-01,0.000e+00
1.489e-01,0.000e+00
1.501e-01,0.000e+00
1.514e-01,0.000e+00
1.526e-01,0.000e+00
1.539e-01,0.000e+00
1.551e-01,0.000e+00
1.564e-01,0.000e+00
1.577e-01,0.000e+00
1.589e-01,0.000e+00
1.602e-01,0.000e+00
1.614e-01,0.000e+00
1.627e-01,0.000e+00
1.639e-01,0.000e+00
1.652e-01,0.000e+00
1.664e-01,0.000e+00
1.677e-01,0.000e+00
1.690e-01,0.000e+00
1.702e-01,0.000e+00
1.715e-01,0.000e+00
1.727e-01,0.000e+00
1.740e-01,0.000e+00
1.752e-01,0.000e+00
1.765e-01,0.000e+00
1.778e-01,0.000e+00
1.790e-01,0.000e+00
1.803e-01,0.000e+00
1.815e-01,0.000e+00
1.828e-01,0.000e+00
1.840e-01,0.000e+00
1.853e-01,0.000e+00
1.865e-01,0.000e+00
1.878e-01,0.000e+00
1.891e-01,0.000e+00
1.903e-01,0.000e+00
1.916e-01,0.000e+00
1.928e-01,0.000e+00
1.941e-01,0.000e+00
1.953e-01,0.000e+00
1.966e-01,0.000e+00
1.979e-01,0.000e+00
1.991e-01,0.000e+00
2.004e-01,0.000e+00
2.016e-01,0.000e+00
2.029e-01,0.000e+00
2.041e-01,0.000e+00
2.054e-01,0.000e+00
2.066e-01,0.000e+00
2.079e-01,0.000e+00
2.092e-01,0.000e+00
2.104e-01,0.000e+00
2.117e-01,0.000e+00
2.129e-01,0.000e+00
2.142e-01,0.000e+00
2.154e-01,0.000e+00
2.167e-01,0.000e+00
2.180e-01,0.000e+00
2.192e-01,0.000e+00
2.205e-01,0.000e+00
2.217e-01,0.000e+00
2.230e-01,0.000e+00
2.242e-01,0.000e+00
2.255e-01,0.000e+00
2.267e-01,0.000e+00
2.280e-01,0.000e+00
2.293e-01,0.000e+00
2.305e-01,0.000e+00
2.318e-01,0.000e+00
2.330e-01,0.000e+00
2.343e-01,0.000e+00
2.355e-01,0.000e+00
2.368e-01,0.000e+00
2.380e-01,0.000e+00
2.393e-01,0.000e+00
2.406e-01,0.000e+00
2.418e-01,0.000e+00
2.431e-01,0.000e+00
2.443e-01,0.000e+00
2.456e-01,0.000e+00
2.468e-01,0.000e+00
2.481e-01,0.000e+00
2.494e-01,0.000e+00
2.506e-01,0.000e+00
