transmittance,probability_density
1.505e-03,0.000e+00
4.514e-03,0.000e+00
7.524e-03,0.000e+00
1.053e-02,0.000e+00
1.354e-02,0.000e+00
1.655e-02,0.000e+00
1.956e-02,0.000e+00
2.257e-02,0.000e+00
2.558e-02,0.000e+00
2.859e-02,0.000e+00
3.160e-02,0.000e+00
3.461e-02,0.000e+00
3.762e-02,3.323e-03
4.063e-02,6.645e-03
4.364e-02,0.000e+00
4.665e-02,3.323e-03
4.966e-02,1.329e-02
5.267e-02,3.323e-03
5.568e-02,1.994e-02
5.869e-02,3.655e-02
6.170e-02,2.990e-02
6.471e-02,1.329e-02
6.772e-02,2.990e-02
7.073e-02,3.987e-02
7.374e-02,4.984e-02
7.674e-02,4.652e-02
7.975e-02,6.978e-02
8.276e-02,5.316e-02
8.577e-02,1.030e-01
8.878e-02,9.968e-02
9.179e-02,9.968e-02
9.480e-02,1.362e-01
9.781e-02,1.595e-01
1.008e-01,1.728e-01
1.038e-01,2.127e-01
1.068e-01,1.927e-01
1.099e-01,2.558e-01
1.129e-01,2.824e-01
1.159e-01,3.190e-01
1.189e-01,3.389e-01
1.219e-01,3.389e-01
1.249e-01,4.020e-01
1.279e-01,5.017e-01
1.309e-01,5.017e-01
1.339e-01,5.649e-01
1.369e-01,6.047e-01
1.399e-01,6.081e-01
1.430e-01,7.343e-01
1.460e-01,7.742e-01
1.490e-01,7.642e-01
1.520e-01,9.902e-01
1.550e-01,9.204e-01
1.580e-01,1.050e+00
1.610e-01,1.226e+00
1.640e-01,1.186e+00
1.670e-01,1.286e+00
1.700e-01,1.402e+00
1.731e-01,1.612e+00
1.761e-01,1.685e+00
1.791e-01,1.728e+00
1.821e-01,1.911e+00
1.851e-01,2.077e+00
1.881e-01,2.180e+00
1.911e-01,2.259e+00
1.941e-01,2.449e+00
1.971e-01,2.781e+00
2.001e-01,2.934e+00
2.031e-01,2.924e+00
2.062e-01,3.339e+00
2.092e-01,3.326e+00
2.122e-01,3.422e+00
2.152e-01,3.828e+00
2.182e-01,4.007e+00
2.212e-01,4.409e+00
2.242e-01,4.579e+00
2.272e-01,4.645e+00
2.302e-01,5.017e+00
2.332e-01,5.343e+00
2.363e-01,5.306e+00
2.393e-01,5.838e+00
2.423e-01,5.964e+00
2.453e-01,6.469e+00
2.483e-01,6.409e+00
2.513e-01,7.220e+00
2.543e-01,7.453e+00
2.573e-01,7.433e+00
2.603e-01,7.945e+00
2.633e-01,8.117e+00
2.663e-01,8.666e+00
2.694e-01,8.805e+00
2.724e-01,8.656e+00
2.754e-01,8.865e+00
2.784e-01,9.044e+00
2.814e-01,9.250e+00
2.844e-01,9.111e+00
2.874e-01,8.878e+00
2.904e-01,8.779e+00
2.934e-01,8.835e+00
2.964e-01,8.649e+00
2.995e-01,8.200e+00
3.025e-01,7.984e+00
3.055e-01,7.569e+00
3.085e-01,7.270e+00
3.115e-01,6.529e+00
3.145e-01,6.157e+00
3.175e-01,5.449e+00
3.205e-01,5.134e+00
3.235e-01,4.805e+00
3.265e-01,4.044e+00
3.296e-01,3.509e+00
3.326e-01,2.798e+00
3.356e-01,2.764e+00
3.386e-01,2.143e+00
3.416e-01,1.731e+00
3.446e-01,1.525e+00
3.476e-01,1.312e+00
3.506e-01,1.123e+00
3.536e-01,8.174e-01
3.566e-01,6.446e-01
3.596e-01,4.851e-01
3.627e-01,4.220e-01
3.657e-01,2.758e-01
3.687e-01,1.960e-01
3.717e-01,1.861e-01
3.747e-01,1.063e-01
3.777e-01,8.639e-02
3.807e-01,4.984e-02
3.837e-01,3.323e-02
3.867e-01,4.652e-02
3.897e-01,2.326e-02
3.928e-01,3.323e-02
3.958e-01,3.323e-03
3.988e-01,9.968e-03
4.018e-01,3.323e-03
4.048e-01,0.000e+00
4.078e-01,0.000e+00
4.108e-01,0.000e+00
4.138e-01,0.000e+00
4.168e-01,3.323e-03
4.198e-01,0.000e+00
4.228e-01,0.000e+00
4.259e-01,3.323e-03
4.289e-01,0.000e+00
4.319e-01,0.000e+00
4.349e-01,0.000e+00
4.379e-01,0.000e+00
4.409e-01,0.000e+00
4.439e-01,0.000e+00
4.469e-01,0.000e+00
4.499e-01,0.000e+00
4.529e-01,0.000e+00
4.560e-01,0.000e+00
4.590e-01,0.000e+00
4.620e-01,0.000e+00
4.650e-01,0.000e+00
4.680e-01,0.000e+00
4.710e-01,0.000e+00
4.740e-01,0.000e+00
4.770e-01,0.000e+00
4.800e-01,0.000e+00
4.830e-01,0.000e+00
4.861e-01,0.000e+00
4.891e-01,0.000e+00
4.921e-01,0.000e+00
4.951e-01,0.000e+00
4.981e-01,0.000e+00
5.011e-01,0.000e+00
5.041e-01,0.000e+00
5.071e-01,0.000e+00
5.101e-01,0.000e+00
5.131e-01,0.000e+00
5.161e-01,0.000e+00
5.192e-01,0.000e+00
5.222e-01,0.000e+00
5.252e-01,0.000e+00
5.282e-01,0.000e+00
5.312e-01,0.000e+00
5.342e-01,0.000e+00
5.372e-01,0.000e+00
5.402e-01,0.000e+00
5.432e-01,0.000e+00
5.462e-01,0.000e+00
5.493e-01,0.000e+00
5.523e-01,0.000e+00
5.553e-01,0.000e+00
5.583e-01,0.000e+00
5.613e-01,0.000e+00
5.643e-01,0.000e+00
5.673e-01,0.000e+00
5.703e-01,0.000e+00
5.733e-01,0.000e+00
5.763e-01,0.000e+00
5.793e-01,0.000e+00
5.824e-01,0.000e+00
5.854e-01,0.000e+00
5.884e-01,0.000e+00
5.914e-01,0.000e+00
5.944e-01,0.000e+00
5.974e-01,0.000e+00
6.004e-01,0.000e+00
