transmittance,probability_density
1.876e-03,0.000e+00
5.628e-03,0.000e+00
9.380e-03,0.000e+00
1.313e-02,0.000e+00
1.688e-02,0.000e+00
2.064e-02,0.000e+00
2.439e-02,0.000e+00
2.814e-02,0.000e+00
3.189e-02,0.000e+00
3.564e-02,0.000e+00
3.940e-02,0.000e+00
4.315e-02,0.000e+00
4.690e-02,0.000e+00
5.065e-02,0.000e+00
5.441e-02,0.000e+00
5.816e-02,0.000e+00
6.191e-02,2.665e-03
6.566e-02,5.330e-03
6.941e-02,0.000e+00
7.317e-02,2.665e-03
7.692e-02,0.000e+00
8.067e-02,1.066e-02
8.442e-02,2.665e-03
8.817e-02,1.333e-02
9.193e-02,1.066e-02
9.568e-02,3.465e-02
9.943e-02,1.066e-02
1.032e-01,1.066e-02
1.069e-01,2.132e-02
1.107e-01,1.866e-02
1.144e-01,3.998e-02
1.182e-01,2.665e-02
1.219e-01,4.797e-02
1.257e-01,4.531e-02
1.294e-01,4.264e-02
1.332e-01,5.863e-02
1.370e-01,8.529e-02
1.407e-01,8.529e-02
1.445e-01,7.729e-02
1.482e-01,1.093e-01
1.520e-01,1.119e-01
1.557e-01,1.333e-01
1.595e-01,1.652e-01
1.632e-01,1.652e-01
1.670e-01,1.413e-01
1.707e-01,2.132e-01
1.745e-01,2.105e-01
1.782e-01,2.559e-01
1.820e-01,2.639e-01
1.857e-01,2.612e-01
1.895e-01,3.598e-01
1.932e-01,3.065e-01
1.970e-01,4.424e-01
2.007e-01,4.371e-01
2.045e-01,4.264e-01
2.082e-01,4.744e-01
2.120e-01,5.197e-01
2.157e-01,5.810e-01
2.195e-01,5.650e-01
2.232e-01,6.823e-01
2.270e-01,7.169e-01
2.308e-01,7.329e-01
2.345e-01,9.248e-01
2.383e-01,8.635e-01
2.420e-01,9.062e-01
2.458e-01,1.005e+00
2.495e-01,1.178e+00
2.533e-01,1.186e+00
2.570e-01,1.271e+00
2.608e-01,1.301e+00
2.645e-01,1.482e+00
2.683e-01,1.599e+00
2.720e-01,1.647e+00
2.758e-01,1.698e+00
2.795e-01,1.884e+00
2.833e-01,2.119e+00
2.870e-01,2.212e+00
2.908e-01,2.244e+00
2.945e-01,2.439e+00
2.983e-01,2.617e+00
3.020e-01,2.535e+00
3.058e-01,2.798e+00
3.095e-01,3.060e+00
3.133e-01,3.289e+00
3.171e-01,3.518e+00
3.208e-01,3.499e+00
3.246e-01,3.710e+00
3.283e-01,4.059e+00
3.321e-01,4.102e+00
3.358e-01,4.195e+00
3.396e-01,4.589e+00
3.433e-01,4.733e+00
3.471e-01,5.029e+00
3.508e-01,5.088e+00
3.546e-01,5.775e+00
3.583e-01,5.893e+00
3.621e-01,5.791e+00
3.658e-01,6.364e+00
3.696e-01,6.378e+00
3.733e-01,6.756e+00
3.771e-01,7.017e+00
3.808e-01,6.727e+00
3.846e-01,7.041e+00
3.883e-01,7.097e+00
3.921e-01,7.284e+00
3.958e-01,7.316e+00
3.996e-01,7.095e+00
4.034e-01,6.905e+00
4.071e-01,7.007e+00
4.109e-01,6.911e+00
4.146e-01,6.490e+00
4.184e-01,6.471e+00
4.221e-01,6.101e+00
4.259e-01,5.861e+00
4.296e-01,5.301e+00
4.334e-01,4.955e+00
4.371e-01,4.472e+00
4.409e-01,4.155e+00
4.446e-01,3.944e+00
4.484e-01,3.278e+00
4.521e-01,2.886e+00
4.559e-01,2.289e+00
4.596e-01,2.236e+00
4.634e-01,1.786e+00
4.671e-01,1.394e+00
4.709e-01,1.263e+00
4.746e-01,1.050e+00
4.784e-01,8.955e-01
4.821e-01,6.237e-01
4.859e-01,5.277e-01
4.896e-01,3.865e-01
4.934e-01,3.278e-01
4.972e-01,1.812e-01
5.009e-01,1.572e-01
5.047e-01,1.333e-01
5.084e-01,9.328e-02
5.122e-01,4.797e-02
5.159e-01,3.198e-02
5.197e-01,3.198e-02
5.234e-01,3.198e-02
5.272e-01,2.665e-02
5.309e-01,5.330e-03
5.347e-01,7.996e-03
5.384e-01,2.665e-03
5.422e-01,0.000e+00
5.459e-01,0.000e+00
5.497e-01,0.000e+00
5.534e-01,2.665e-03
5.572e-01,0.000e+00
5.609e-01,0.000e+00
5.647e-01,0.000e+00
5.684e-01,2.665e-03
5.722e-01,0.000e+00
5.759e-01,0.000e+00
5.797e-01,0.000e+00
5.835e-01,0.000e+00
5.872e-01,0.000e+00
5.910e-01,0.000e+00
5.947e-01,0.000e+00
5.985e-01,0.000e+00
6.022e-01,0.000e+00
6.060e-01,0.000e+00
6.097e-01,0.000e+00
6.135e-01,0.000e+00
6.172e-01,0.000e+00
6.210e-01,0.000e+00
6.247e-01,0.000e+00
6.285e-01,0.000e+00
6.322e-01,0.000e+00
6.360e-01,0.000e+00
6.397e-01,0.000e+00
6.435e-01,0.000e+00
6.472e-01,0.000e+00
6.510e-01,0.000e+00
6.547e-01,0.000e+00
6.585e-01,0.000e+00
6.622e-01,0.000e+00
6.660e-01,0.000e+00
6.697e-01,0.000e+00
6.735e-01,0.000e+00
6.773e-01,0.000e+00
6.810e-01,0.000e+00
6.848e-01,0.000e+00
6.885e-01,0.000e+00
6.923e-01,0.000e+00
6.960e-01,0.000e+00
6.998e-01,0.000e+00
7.035e-01,0.000e+00
7.073e-01,0.000e+00
7.110e-01,0.000e+00
7.148e-01,0.000e+00
7.185e-01,0.000e+00
7.223e-01,0.000e+00
7.260e-01,0.000e+00
7.298e-01,0.000e+00
7.335e-01,0.000e+00
7.373e-01,0.000e+00
7.410e-01,0.000e+00
7.448e-01,0.000e+00
7.485e-01,0.000e+00
