transmittance,probability_density
6.281e-04,0.000e+00
1.884e-03,0.000e+00
3.141e-03,0.000e+00
4.397e-03,0.000e+00
5.653e-03,0.000e+00
6.909e-03,0.000e+00
8.165e-03,0.000e+00
9.421e-03,7.961e-03
1.068e-02,1.592e-02
1.193e-02,7.961e-03
1.319e-02,3.980e-02
1.445e-02,3.184e-02
1.570e-02,9.553e-02
1.696e-02,7.164e-02
1.821e-02,1.114e-01
1.947e-02,9.553e-02
2.073e-02,1.751e-01
2.198e-02,1.433e-01
2.324e-02,2.070e-01
2.450e-02,3.741e-01
2.575e-02,1.911e-01
2.701e-02,3.901e-01
2.826e-02,4.537e-01
2.952e-02,5.652e-01
3.078e-02,6.209e-01
3.203e-02,6.130e-01
3.329e-02,9.314e-01
3.455e-02,8.677e-01
3.580e-02,1.067e+00
3.706e-02,1.083e+00
3.831e-02,1.361e+00
3.957e-02,1.640e+00
4.083e-02,1.560e+00
4.208e-02,1.743e+00
4.334e-02,1.918e+00
4.460e-02,2.189e+00
4.585e-02,2.436e+00
4.711e-02,2.635e+00
4.836e-02,2.826e+00
4.962e-02,3.081e+00
5.088e-02,3.383e+00
5.213e-02,3.686e+00
5.339e-02,4.060e+00
5.464e-02,4.585e+00
5.590e-02,4.569e+00
5.716e-02,5.087e+00
5.841e-02,5.525e+00
5.967e-02,6.074e+00
6.093e-02,6.424e+00
6.218e-02,6.870e+00
6.344e-02,7.427e+00
6.469e-02,7.857e+00
6.595e-02,8.836e+00
6.721e-02,9.051e+00
6.846e-02,9.664e+00
6.972e-02,9.903e+00
7.098e-02,1.112e+01
7.223e-02,1.206e+01
7.349e-02,1.232e+01
7.474e-02,1.286e+01
7.600e-02,1.403e+01
7.726e-02,1.431e+01
7.851e-02,1.529e+01
7.977e-02,1.579e+01
8.102e-02,1.743e+01
8.228e-02,1.720e+01
8.354e-02,1.957e+01
8.479e-02,1.961e+01
8.605e-02,1.993e+01
8.731e-02,2.171e+01
8.856e-02,2.270e+01
8.982e-02,2.282e+01
9.107e-02,2.247e+01
9.233e-02,2.323e+01
9.359e-02,2.384e+01
9.484e-02,2.369e+01
9.610e-02,2.389e+01
9.736e-02,2.317e+01
9.861e-02,2.231e+01
9.987e-02,2.259e+01
1.011e-01,2.170e+01
1.024e-01,2.078e+01
1.036e-01,1.978e+01
1.049e-01,1.872e+01
1.061e-01,1.696e+01
1.074e-01,1.543e+01
1.087e-01,1.411e+01
1.099e-01,1.297e+01
1.112e-01,1.201e+01
1.124e-01,9.855e+00
1.137e-01,8.510e+00
1.149e-01,6.878e+00
1.162e-01,6.480e+00
1.175e-01,4.983e+00
1.187e-01,3.996e+00
1.200e-01,3.606e+00
1.212e-01,3.184e+00
1.225e-01,2.388e+00
1.237e-01,1.640e+00
1.250e-01,1.417e+00
1.262e-01,1.114e+00
1.275e-01,8.677e-01
1.288e-01,5.572e-01
1.300e-01,4.617e-01
1.313e-01,3.423e-01
1.325e-01,2.547e-01
1.338e-01,1.194e-01
1.350e-01,1.114e-01
1.363e-01,7.961e-02
1.376e-01,9.553e-02
1.388e-01,8.757e-02
1.401e-01,2.388e-02
1.413e-01,1.592e-02
1.426e-01,1.592e-02
1.438e-01,7.961e-03
1.451e-01,0.000e+00
1.463e-01,0.000e+00
1.476e-01,0.000e+00
1.489e-01,0.000e+00
1.501e-01,7.961e-03
1.514e-01,0.000e+00
1.526e-01,0.000e+00
1.539e-01,7.961e-03
1.551e-01,0.000e+00
1.564e-01,0.000e+00
1.577e-01,0.000e+00
1.589e-01,0.000e+00
1.602e-01,0.000e+00
1.614e-01,0.000e+00
1.627e-01,0.000e+00
1.639e-01,0.000e+00
1.652e-01,0.000e+00
1.664e-01,0.000e+00
1.677e-01,0.000e+00
1.690e-01,0.000e+00
1.702e-01,0.000e+00
1.715e-01,0.000e+00
1.727e-01,0.000e+00
1.740e-01,0.000e+00
1.752e-01,0.000e+00
1.765e-01,0.000e+00
1.778e-01,0.000e+00
1.790e-01,0.000e+00
1.803e-01,0.000e+00
1.815e-01,0.000e+00
1.828e-01,0.000e+00
1.840e-01,0.000e+00
1.853e-01,0.000e+00
1.865e-01,0.000e+00
1.878e-01,0.000e+00
1.891e-01,0.000e+00
1.903e-01,0.000e+00
1.916e-01,0.000e+00
1.928e-01,0.000e+00
1.941e-01,0.000e+00
1.953e-01,0.000e+00
1.966e-01,0.000e+00
1.979e-01,0.000e+00
1.991e-01,0.000e+00
2.004e-01,0.000e+00
2.016e-01,0.000e+00
2.029e-01,0.000e+00
2.041e-01,0.000e+00
2.054e-01,0.000e+00
2.066e-01,0.000e+00
2.079e-01,0.000e+00
2.092e-01,0.000e+00
2.104e-01,0.000e+00
2.117e-01,0.000e+00
2.129e-01,0.000e+00
2.142e-01,0.000e+00
2.154e-01,0.000e+00
2.167e-01,0.000e+00
2.180e-01,0.000e+00
2.192e-01,0.000e+00
2.205e-01,0.000e+00
2.217e-01,0.000e+00
2.230e-01,0.000e+00
2.242e-01,0.000e+00
2.255e-01,0.000e+00
2.267e-01,0.000e+00
2.280e-01,0.000e+00
2.293e-01,0.000e+00
2.305e-01,0.000e+00
2.318e-01,0.000e+00
2.330e-01,0.000e+00
2.343e-01,0.000e+00
2.355e-01,0.000e+00
2.368e-01,0.000e+00
2.380e-01,0.000e+00
2.393e-01,0.000e+00
2.406e-01,0.000e+00
2.418e-01,0.000e+00
2.431e-01,0.000e+00
2.443e-01,0.000e+00
2.456e-01,0.000e+00
2.468e-01,0.000e+00
2.481e-01,0.000e+00
2.494e-01,0.000e+00
2.506e-01,0.000e+00
