transmittance,probability_density
6.762e-04,0.000e+00
2.029e-03,0.000e+00
3.381e-03,0.000e+00
4.734e-03,0.000e+00
6.086e-03,0.000e+00
7.438e-03,0.000e+00
8.791e-03,0.000e+00
1.014e-02,7.394e-03
1.150e-02,7.394e-03
1.285e-02,3.697e-02
1.420e-02,0.000e+00
1.555e-02,2.958e-02
1.691e-02,6.655e-02
1.826e-02,6.655e-02
1.961e-02,6.655e-02
2.096e-02,1.183e-01
2.232e-02,1.035e-01
2.367e-02,2.070e-01
2.502e-02,2.070e-01
2.637e-02,2.810e-01
2.773e-02,2.662e-01
2.908e-02,2.662e-01
3.043e-02,4.436e-01
3.178e-02,5.693e-01
3.314e-02,5.915e-01
3.449e-02,6.581e-01
3.584e-02,6.729e-01
3.719e-02,9.169e-01
3.854e-02,1.087e+00
3.990e-02,1.257e+00
4.125e-02,1.287e+00
4.260e-02,1.627e+00
4.395e-02,1.693e+00
4.531e-02,1.930e+00
4.666e-02,2.107e+00
4.801e-02,2.433e+00
4.936e-02,2.647e+00
5.072e-02,3.032e+00
5.207e-02,3.697e+00
5.342e-02,3.690e+00
5.477e-02,4.141e+00
5.613e-02,4.422e+00
5.748e-02,4.932e+00
5.883e-02,4.947e+00
6.018e-02,5.597e+00
6.154e-02,6.433e+00
6.289e-02,7.231e+00
6.424e-02,7.631e+00
6.559e-02,8.370e+00
6.695e-02,8.814e+00
6.830e-02,9.782e+00
6.965e-02,1.026e+01
7.100e-02,1.062e+01
7.236e-02,1.177e+01
7.371e-02,1.284e+01
7.506e-02,1.351e+01
7.641e-02,1.511e+01
7.777e-02,1.515e+01
7.912e-02,1.669e+01
8.047e-02,1.719e+01
8.182e-02,1.834e+01
8.318e-02,1.931e+01
8.453e-02,2.105e+01
8.588e-02,2.173e+01
8.723e-02,2.212e+01
8.859e-02,2.384e+01
8.994e-02,2.436e+01
9.129e-02,2.421e+01
9.264e-02,2.469e+01
9.400e-02,2.600e+01
9.535e-02,2.535e+01
9.670e-02,2.484e+01
9.805e-02,2.390e+01
9.941e-02,2.376e+01
1.008e-01,2.274e+01
1.021e-01,2.117e+01
1.035e-01,1.990e+01
1.048e-01,1.842e+01
1.062e-01,1.664e+01
1.075e-01,1.491e+01
1.089e-01,1.283e+01
1.102e-01,1.165e+01
1.116e-01,9.620e+00
1.129e-01,8.148e+00
1.143e-01,6.610e+00
1.156e-01,5.730e+00
1.170e-01,4.762e+00
1.183e-01,3.823e+00
1.197e-01,2.921e+00
1.210e-01,2.174e+00
1.224e-01,1.760e+00
1.237e-01,1.538e+00
1.251e-01,9.538e-01
1.265e-01,7.246e-01
1.278e-01,4.289e-01
1.292e-01,3.623e-01
1.305e-01,1.553e-01
1.319e-01,1.627e-01
1.332e-01,9.612e-02
1.346e-01,6.655e-02
1.359e-01,4.436e-02
1.373e-01,2.958e-02
1.386e-01,7.394e-03
1.400e-01,0.000e+00
1.413e-01,1.479e-02
1.427e-01,0.000e+00
1.440e-01,7.394e-03
1.454e-01,0.000e+00
1.467e-01,0.000e+00
1.481e-01,0.000e+00
1.494e-01,0.000e+00
1.508e-01,0.000e+00
1.522e-01,0.000e+00
1.535e-01,0.000e+00
1.549e-01,0.000e+00
1.562e-01,0.000e+00
1.576e-01,0.000e+00
1.589e-01,0.000e+00
1.603e-01,0.000e+00
1.616e-01,0.000e+00
1.630e-01,0.000e+00
1.643e-01,0.000e+00
1.657e-01,0.000e+00
1.670e-01,0.000e+00
1.684e-01,0.000e+00
1.697e-01,0.000e+00
1.711e-01,0.000e+00
1.724e-01,0.000e+00
1.738e-01,0.000e+00
1.751e-01,0.000e+00
1.765e-01,0.000e+00
1.778e-01,0.000e+00
1.792e-01,0.000e+00
1.806e-01,0.000e+00
1.819e-01,0.000e+00
1.833e-01,0.000e+00
1.846e-01,0.000e+00
1.860e-01,0.000e+00
1.873e-01,0.000e+00
1.887e-01,0.000e+00
1.900e-01,0.000e+00
1.914e-01,0.000e+00
1.927e-01,0.000e+00
1.941e-01,0.000e+00
1.954e-01,0.000e+00
1.968e-01,0.000e+00
1.981e-01,0.000e+00
1.995e-01,0.000e+00
2.008e-01,0.000e+00
2.022e-01,0.000e+00
2.035e-01,0.000e+00
2.049e-01,0.000e+00
2.062e-01,0.000e+00
2.076e-01,0.000e+00
2.090e-01,0.000e+00
2.103e-01,0.000e+00
2.117e-01,0.000e+00
2.130e-01,0.000e+00
2.144e-01,0.000e+00
2.157e-01,0.000e+00
2.171e-01,0.000e+00
2.184e-01,0.000e+00
2.198e-01,0.000e+00
2.211e-01,0.000e+00
2.225e-01,0.000e+00
2.238e-01,0.000e+00
2.252e-01,0.000e+00
2.265e-01,0.000e+00
2.279e-01,0.000e+00
2.292e-01,0.000e+00
2.306e-01,0.000e+00
2.319e-01,0.000e+00
2.333e-01,0.000e+00
2.347e-01,0.000e+00
2.360e-01,0.000e+00
2.374e-01,0.000e+00
2.387e-01,0.000e+00
2.401e-01,0.000e+00
2.414e-01,0.000e+00
2.428e-01,0.000e+00
2.441e-01,0.000e+00
2.455e-01,0.000e+00
2.468e-01,0.000e+00
2.482e-01,0.000e+00
2.495e-01,0.000e+00
2.509e-01,0.000e+00
2.522e-01,0.000e+00
2.536e-01,0.000e+00
2.549e-01,0.000e+00
2.563e-01,0.000e+00
2.576e-01,0.000e+00
2.590e-01,0.000e+00
2.603e-01,0.000e+00
2.617e-01,0.000e+00
2.631e-01,0.000e+00
2.644e-01,0.000e+00
2.658e-01,0.000e+00
2.671e-01,0.000e+00
2.685e-01,0.000e+00
2.698e-01,0.000e+00
