transmittance,probability_density
3.121e-05,0.000e+00
9.364e-05,0.000e+00
1.561e-04,0.000e+00
2.185e-04,0.000e+00
2.809e-04,4.806e-01
3.433e-04,1.602e-01
4.058e-04,1.442e+00
4.682e-04,3.044e+00
5.306e-04,2.883e+00
5.930e-04,4.325e+00
6.555e-04,4.485e+00
7.179e-04,1.025e+01
7.803e-04,9.451e+00
8.427e-04,1.314e+01
9.052e-04,1.906e+01
9.676e-04,2.050e+01
1.030e-03,2.771e+01
1.092e-03,3.092e+01
1.155e-03,4.005e+01
1.217e-03,4.854e+01
1.280e-03,5.126e+01
1.342e-03,6.119e+01
1.405e-03,7.241e+01
1.467e-03,7.897e+01
1.529e-03,9.083e+01
1.592e-03,1.057e+02
1.654e-03,1.249e+02
1.717e-03,1.349e+02
1.779e-03,1.522e+02
1.842e-03,1.677e+02
1.904e-03,1.871e+02
1.966e-03,2.119e+02
2.029e-03,2.374e+02
2.091e-03,2.614e+02
2.154e-03,2.867e+02
2.216e-03,3.055e+02
2.279e-03,3.478e+02
2.341e-03,3.744e+02
2.403e-03,4.013e+02
2.466e-03,4.316e+02
2.528e-03,4.622e+02
2.591e-03,5.062e+02
2.653e-03,5.520e+02
2.715e-03,5.769e+02
2.778e-03,6.223e+02
2.840e-03,6.614e+02
2.903e-03,6.718e+02
2.965e-03,6.811e+02
3.028e-03,6.984e+02
3.090e-03,6.960e+02
3.152e-03,6.762e+02
3.215e-03,6.568e+02
3.277e-03,6.296e+02
3.340e-03,5.905e+02
3.402e-03,5.426e+02
3.465e-03,4.698e+02
3.527e-03,4.088e+02
3.589e-03,3.732e+02
3.652e-03,2.877e+02
3.714e-03,2.260e+02
3.777e-03,1.922e+02
3.839e-03,1.390e+02
3.902e-03,1.089e+02
3.964e-03,8.618e+01
4.026e-03,5.959e+01
4.089e-03,4.085e+01
4.151e-03,2.980e+01
4.214e-03,1.810e+01
4.276e-03,1.249e+01
4.339e-03,8.010e+00
4.401e-03,3.845e+00
4.463e-03,2.883e+00
4.526e-03,2.403e+00
4.588e-03,2.082e+00
4.651e-03,4.806e-01
4.713e-03,6.408e-01
4.776e-03,0.000e+00
4.838e-03,0.000e+00
4.900e-03,0.000e+00
4.963e-03,1.602e-01
5.025e-03,0.000e+00
5.088e-03,0.000e+00
5.150e-03,1.602e-01
5.212e-03,0.000e+00
5.275e-03,0.000e+00
5.337e-03,0.000e+00
5.400e-03,0.000e+00
5.462e-03,0.000e+00
5.525e-03,0.000e+00
5.587e-03,0.000e+00
5.649e-03,0.000e+00
5.712e-03,0.000e+00
5.774e-03,0.000e+00
5.837e-03,0.000e+00
5.899e-03,0.000e+00
5.962e-03,0.000e+00
6.024e-03,0.000e+00
6.086e-03,0.000e+00
6.149e-03,0.000e+00
6.211e-03,0.000e+00
6.274e-03,0.000e+00
6.336e-03,0.000e+00
6.399e-03,0.000e+00
6.461e-03,0.000e+00
6.523e-03,0.000e+00
6.586e-03,0.000e+00
6.648e-03,0.000e+00
6.711e-03,0.000e+00
6.773e-03,0.000e+00
6.836e-03,0.000e+00
6.898e-03,0.000e+00
6.960e-03,0.000e+00
7.023e-03,0.000e+00
7.085e-03,0.000e+00
7.148e-03,0.000e+00
7.210e-03,0.000e+00
7.273e-03,0.000e+00
7.335e-03,0.000e+00
7.397e-03,0.000e+00
7.460e-03,0.000e+00
7.522e-03,0.000e+00
7.585e-03,0.000e+00
7.647e-03,0.000e+00
7.709e-03,0.000e+00
7.772e-03,0.000e+00
7.834e-03,0.000e+00
7.897e-03,0.000e+00
7.959e-03,0.000e+00
8.022e-03,0.000e+00
8.084e-03,0.000e+00
8.146e-03,0.000e+00
8.209e-03,0.000e+00
8.271e-03,0.000e+00
8.334e-03,0.000e+00
8.396e-03,0.000e+00
8.459e-03,0.000e+00
8.521e-03,0.000e+00
8.583e-03,0.000e+00
8.646e-03,0.000e+00
8.708e-03,0.000e+00
8.771e-03,0.000e+00
8.833e-03,0.000e+00
8.896e-03,0.000e+00
8.958e-03,0.000e+00
9.020e-03,0.000e+00
9.083e-03,0.000e+00
9.145e-03,0.000e+00
9.208e-03,0.000e+00
9.270e-03,0.000e+00
9.333e-03,0.000e+00
9.395e-03,0.000e+00
9.457e-03,0.000e+00
9.520e-03,0.000e+00
9.582e-03,0.000e+00
9.645e-03,0.000e+00
9.707e-03,0.000e+00
9.770e-03,0.000e+00
9.832e-03,0.000e+00
9.894e-03,0.000e+00
9.957e-03,0.000e+00
1.002e-02,0.000e+00
1.008e-02,0.000e+00
1.014e-02,0.000e+00
1.021e-02,0.000e+00
1.027e-02,0.000e+00
1.033e-02,0.000e+00
1.039e-02,0.000e+00
1.046e-02,0.000e+00
1.052e-02,0.000e+00
1.058e-02,0.000e+00
1.064e-02,0.000e+00
1.071e-02,0.000e+00
1.077e-02,0.000e+00
1.083e-02,0.000e+00
1.089e-02,0.000e+00
1.096e-02,0.000e+00
1.102e-02,0.000e+00
1.108e-02,0.000e+00
1.114e-02,0.000e+00
1.121e-02,0.000e+00
1.127e-02,0.000e+00
1.133e-02,0.000e+00
1.139e-02,0.000e+00
1.145e-02,0.000e+00
1.152e-02,0.000e+00
1.158e-02,0.000e+00
1.164e-02,0.000e+00
1.170e-02,0.000e+00
1.177e-02,0.000e+00
1.183e-02,0.000e+00
1.189e-02,0.000e+00
1.195e-02,0.000e+00
1.202e-02,0.000e+00
1.208e-02,0.000e+00
1.214e-02,0.000e+00
1.220e-02,0.000e+00
1.227e-02,0.000e+00
1.233e-02,0.000e+00
1.239e-02,0.000e+00
1.245e-02,0.000e+00
