transmittance,probability_density
8.407e-04,0.000e+00
2.522e-03,0.000e+00
4.203e-03,0.000e+00
5.885e-03,0.000e+00
7.566e-03,0.000e+00
9.247e-03,0.000e+00
1.093e-02,0.000e+00
1.261e-02,0.000e+00
1.429e-02,5.948e-03
1.597e-02,1.190e-02
1.765e-02,0.000e+00
1.934e-02,1.190e-02
2.102e-02,2.379e-02
2.270e-02,2.974e-02
2.438e-02,7.732e-02
2.606e-02,5.353e-02
2.774e-02,6.542e-02
2.942e-02,5.948e-02
3.110e-02,1.249e-01
3.279e-02,7.732e-02
3.447e-02,1.427e-01
3.615e-02,1.725e-01
3.783e-02,2.320e-01
3.951e-02,1.903e-01
4.119e-02,2.379e-01
4.287e-02,3.390e-01
4.456e-02,3.866e-01
4.624e-02,4.104e-01
4.792e-02,4.520e-01
4.960e-02,6.126e-01
5.128e-02,5.650e-01
5.296e-02,7.553e-01
5.464e-02,6.780e-01
5.633e-02,8.743e-01
5.801e-02,9.100e-01
5.969e-02,1.178e+00
6.137e-02,1.160e+00
6.305e-02,1.219e+00
6.473e-02,1.297e+00
6.641e-02,1.523e+00
6.809e-02,1.695e+00
6.978e-02,1.820e+00
7.146e-02,1.921e+00
7.314e-02,2.046e+00
7.482e-02,2.415e+00
7.650e-02,2.320e+00
7.818e-02,2.819e+00
7.986e-02,3.087e+00
8.155e-02,3.081e+00
8.323e-02,3.343e+00
8.491e-02,3.479e+00
8.659e-02,4.074e+00
8.827e-02,4.122e+00
8.995e-02,4.639e+00
9.163e-02,4.693e+00
9.331e-02,5.258e+00
9.500e-02,5.567e+00
9.668e-02,5.954e+00
9.836e-02,6.364e+00
1.000e-01,6.542e+00
1.017e-01,6.733e+00
1.034e-01,7.631e+00
1.051e-01,8.035e+00
1.068e-01,8.672e+00
1.084e-01,8.850e+00
1.101e-01,9.106e+00
1.118e-01,1.012e+01
1.135e-01,9.932e+00
1.152e-01,1.082e+01
1.169e-01,1.123e+01
1.185e-01,1.232e+01
1.202e-01,1.192e+01
1.219e-01,1.367e+01
1.236e-01,1.390e+01
1.253e-01,1.385e+01
1.269e-01,1.499e+01
1.286e-01,1.533e+01
1.303e-01,1.637e+01
1.320e-01,1.609e+01
1.337e-01,1.619e+01
1.353e-01,1.645e+01
1.370e-01,1.669e+01
1.387e-01,1.687e+01
1.404e-01,1.668e+01
1.421e-01,1.627e+01
1.438e-01,1.605e+01
1.454e-01,1.579e+01
1.471e-01,1.524e+01
1.488e-01,1.476e+01
1.505e-01,1.399e+01
1.522e-01,1.332e+01
1.538e-01,1.230e+01
1.555e-01,1.109e+01
1.572e-01,1.027e+01
1.589e-01,9.338e+00
1.606e-01,9.159e+00
1.623e-01,7.137e+00
1.639e-01,6.768e+00
1.656e-01,5.222e+00
1.673e-01,5.073e+00
1.690e-01,4.021e+00
1.707e-01,3.224e+00
1.723e-01,2.879e+00
1.740e-01,2.367e+00
1.757e-01,2.129e+00
1.774e-01,1.630e+00
1.791e-01,1.190e+00
1.807e-01,9.516e-01
1.824e-01,7.732e-01
1.841e-01,6.245e-01
1.858e-01,3.925e-01
1.875e-01,3.212e-01
1.892e-01,2.617e-01
1.908e-01,2.141e-01
1.925e-01,8.327e-02
1.942e-01,9.516e-02
1.959e-01,4.758e-02
1.976e-01,7.137e-02
1.992e-01,5.948e-02
2.009e-01,4.163e-02
2.026e-01,5.948e-03
2.043e-01,1.784e-02
2.060e-01,5.948e-03
2.076e-01,0.000e+00
2.093e-01,0.000e+00
2.110e-01,0.000e+00
2.127e-01,0.000e+00
2.144e-01,5.948e-03
2.161e-01,0.000e+00
2.177e-01,0.000e+00
2.194e-01,0.000e+00
2.211e-01,5.948e-03
2.228e-01,0.000e+00
2.245e-01,0.000e+00
2.261e-01,0.000e+00
2.278e-01,0.000e+00
2.295e-01,0.000e+00
2.312e-01,0.000e+00
2.329e-01,0.000e+00
2.345e-01,0.000e+00
2.362e-01,0.000e+00
2.379e-01,0.000e+00
2.396e-01,0.000e+00
2.413e-01,0.000e+00
2.430e-01,0.000e+00
2.446e-01,0.000e+00
2.463e-01,0.000e+00
2.480e-01,0.000e+00
2.497e-01,0.000e+00
2.514e-01,0.000e+00
2.530e-01,0.000e+00
2.547e-01,0.000e+00
2.564e-01,0.000e+00
2.581e-01,0.000e+00
2.598e-01,0.000e+00
2.614e-01,0.000e+00
2.631e-01,0.000e+00
2.648e-01,0.000e+00
2.665e-01,0.000e+00
2.682e-01,0.000e+00
2.699e-01,0.000e+00
2.715e-01,0.000e+00
2.732e-01,0.000e+00
2.749e-01,0.000e+00
2.766e-01,0.000e+00
2.783e-01,0.000e+00
2.799e-01,0.000e+00
2.816e-01,0.000e+00
2.833e-01,0.000e+00
2.850e-01,0.000e+00
2.867e-01,0.000e+00
2.884e-01,0.000e+00
2.900e-01,0.000e+00
2.917e-01,0.000e+00
2.934e-01,0.000e+00
2.951e-01,0.000e+00
2.968e-01,0.000e+00
2.984e-01,0.000e+00
3.001e-01,0.000e+00
3.018e-01,0.000e+00
3.035e-01,0.000e+00
3.052e-01,0.000e+00
3.068e-01,0.000e+00
3.085e-01,0.000e+00
3.102e-01,0.000e+00
3.119e-01,0.000e+00
3.136e-01,0.000e+00
3.153e-01,0.000e+00
3.169e-01,0.000e+00
3.186e-01,0.000e+00
3.203e-01,0.000e+00
3.220e-01,0.000e+00
3.237e-01,0.000e+00
3.253e-01,0.000e+00
3.270e-01,0.000e+00
3.287e-01,0.000e+00
3.304e-01,0.000e+00
3.321e-01,0.000e+00
3.337e-01,0.000e+00
3.354e-01,0.000e+00
