transmittance,probability_density
1.719e-01,0.000e+00
1.760e-01,0.000e+00
1.802e-01,0.000e+00
1.843e-01,0.000e+00
1.885e-01,0.000e+00
1.926e-01,0.000e+00
1.968e-01,0.000e+00
2.009e-01,0.000e+00
2.051e-01,2.409e-03
2.093e-01,4.818e-03
2.134e-01,0.000e+00
2.176e-01,0.000e+00
2.217e-01,0.000e+00
2.259e-01,0.000e+00
2.300e-01,4.818e-03
2.342e-01,0.000e+00
2.383e-01,2.409e-03
2.425e-01,2.409e-03
2.466e-01,0.000e+00
2.508e-01,2.409e-03
2.549e-01,4.818e-03
2.591e-01,7.227e-03
2.632e-01,7.227e-03
2.674e-01,4.818e-03
2.715e-01,7.227e-03
2.757e-01,7.227e-03
2.798e-01,4.818e-03
2.840e-01,9.636e-03
2.881e-01,7.227e-03
2.923e-01,1.445e-02
2.964e-01,1.205e-02
3.006e-01,2.409e-03
3.047e-01,7.227e-03
3.089e-01,1.686e-02
3.130e-01,1.445e-02
3.172e-01,2.891e-02
3.213e-01,2.650e-02
3.255e-01,1.927e-02
3.296e-01,3.132e-02
3.338e-01,1.686e-02
3.379e-01,1.927e-02
3.421e-01,2.168e-02
3.462e-01,4.095e-02
3.504e-01,3.373e-02
3.545e-01,4.095e-02
3.587e-01,4.095e-02
3.628e-01,3.855e-02
3.670e-01,7.468e-02
3.711e-01,4.095e-02
3.753e-01,6.505e-02
3.794e-01,8.673e-02
3.836e-01,1.036e-01
3.877e-01,5.300e-02
3.919e-01,7.950e-02
3.960e-01,6.986e-02
4.002e-01,7.950e-02
4.043e-01,1.084e-01
4.085e-01,1.397e-01
4.126e-01,9.877e-02
4.168e-01,1.325e-01
4.209e-01,1.301e-01
4.251e-01,1.662e-01
4.292e-01,1.590e-01
4.334e-01,1.855e-01
4.376e-01,2.072e-01
4.417e-01,2.240e-01
4.459e-01,2.698e-01
4.500e-01,2.650e-01
4.542e-01,2.578e-01
4.583e-01,3.180e-01
4.625e-01,3.252e-01
4.666e-01,3.228e-01
4.708e-01,3.228e-01
4.749e-01,4.047e-01
4.791e-01,4.216e-01
4.832e-01,3.782e-01
4.874e-01,4.577e-01
4.915e-01,5.541e-01
4.957e-01,4.915e-01
4.998e-01,5.782e-01
5.040e-01,5.806e-01
5.081e-01,6.553e-01
5.123e-01,6.986e-01
5.164e-01,7.733e-01
5.206e-01,7.661e-01
5.247e-01,8.601e-01
5.289e-01,9.203e-01
5.330e-01,8.986e-01
5.372e-01,1.012e+00
5.413e-01,1.038e+00
5.455e-01,1.171e+00
5.496e-01,1.226e+00
5.538e-01,1.364e+00
5.579e-01,1.407e+00
5.621e-01,1.445e+00
5.662e-01,1.515e+00
5.704e-01,1.701e+00
5.745e-01,1.826e+00
5.787e-01,1.884e+00
5.828e-01,1.865e+00
5.870e-01,2.149e+00
5.911e-01,2.216e+00
5.953e-01,2.416e+00
5.994e-01,2.433e+00
6.036e-01,2.566e+00
6.077e-01,2.679e+00
6.119e-01,2.905e+00
6.160e-01,3.127e+00
6.202e-01,3.175e+00
6.243e-01,3.590e+00
6.285e-01,3.503e+00
6.326e-01,3.773e+00
6.368e-01,3.973e+00
6.409e-01,4.030e+00
6.451e-01,4.438e+00
6.492e-01,4.563e+00
6.534e-01,4.616e+00
6.575e-01,4.878e+00
6.617e-01,5.295e+00
6.659e-01,5.580e+00
6.700e-01,5.683e+00
6.742e-01,5.955e+00
6.783e-01,6.090e+00
6.825e-01,6.100e+00
6.866e-01,6.165e+00
6.908e-01,6.553e+00
6.949e-01,6.647e+00
6.991e-01,6.526e+00
7.032e-01,6.736e+00
7.074e-01,6.512e+00
7.115e-01,6.309e+00
7.157e-01,6.396e+00
7.198e-01,6.273e+00
7.240e-01,6.008e+00
7.281e-01,5.707e+00
7.323e-01,5.505e+00
7.364e-01,5.180e+00
7.406e-01,4.833e+00
7.447e-01,4.218e+00
7.489e-01,3.845e+00
7.530e-01,3.568e+00
7.572e-01,2.973e+00
7.613e-01,2.655e+00
7.655e-01,2.120e+00
7.696e-01,1.913e+00
7.738e-01,1.626e+00
7.779e-01,1.277e+00
7.821e-01,1.074e+00
7.862e-01,7.685e-01
7.904e-01,6.167e-01
7.945e-01,5.348e-01
7.987e-01,3.156e-01
8.028e-01,2.505e-01
8.070e-01,1.614e-01
8.111e-01,6.986e-02
8.153e-01,6.505e-02
8.194e-01,4.336e-02
8.236e-01,2.168e-02
8.277e-01,1.205e-02
8.319e-01,7.227e-03
8.360e-01,2.409e-03
8.402e-01,2.409e-03
8.443e-01,2.409e-03
8.485e-01,0.000e+00
8.526e-01,0.000e+00
8.568e-01,0.000e+00
8.609e-01,0.000e+00
8.651e-01,0.000e+00
8.692e-01,0.000e+00
8.734e-01,0.000e+00
8.775e-01,0.000e+00
8.817e-01,0.000e+00
8.858e-01,0.000e+00
8.900e-01,0.000e+00
8.942e-01,0.000e+00
8.983e-01,0.000e+00
9.025e-01,0.000e+00
9.066e-01,0.000e+00
9.108e-01,0.000e+00
9.149e-01,0.000e+00
9.191e-01,0.000e+00
9.232e-01,0.000e+00
9.274e-01,0.000e+00
9.315e-01,0.000e+00
9.357e-01,0.000e+00
9.398e-01,0.000e+00
9.440e-01,0.000e+00
9.481e-01,0.000e+00
9.523e-01,0.000e+00
9.564e-01,0.000e+00
9.606e-01,0.000e+00
9.647e-01,0.000e+00
9.689e-01,0.000e+00
9.730e-01,0.000e+00
9.772e-01,0.000e+00
9.813e-01,0.000e+00
9.855e-01,0.000e+00
9.896e-01,0.000e+00
9.938e-01,0.000e+00
9.979e-01,0.000e+00
