transmittance,probability_density
2.732e-04,1.931e-02
8.196e-04,2.553e+00
1.366e-03,1.183e+01
1.912e-03,2.515e+01
2.459e-03,3.869e+01
3.005e-03,5.031e+01
3.552e-03,5.925e+01
4.098e-03,6.550e+01
4.645e-03,6.938e+01
5.191e-03,7.131e+01
5.737e-03,7.173e+01
6.284e-03,7.099e+01
6.830e-03,6.942e+01
7.377e-03,6.724e+01
7.923e-03,6.466e+01
8.470e-03,6.183e+01
9.016e-03,5.887e+01
9.562e-03,5.584e+01
1.011e-02,5.283e+01
1.066e-02,4.987e+01
1.120e-02,4.700e+01
1.175e-02,4.423e+01
1.229e-02,4.158e+01
1.284e-02,3.906e+01
1.339e-02,3.667e+01
1.393e-02,3.441e+01
1.448e-02,3.228e+01
1.503e-02,3.028e+01
1.557e-02,2.841e+01
1.612e-02,2.665e+01
1.667e-02,2.500e+01
1.721e-02,2.346e+01
1.776e-02,2.201e+01
1.831e-02,2.066e+01
1.885e-02,1.940e+01
1.940e-02,1.823e+01
1.994e-02,1.713e+01
2.049e-02,1.610e+01
2.104e-02,1.514e+01
2.158e-02,1.424e+01
2.213e-02,1.340e+01
2.268e-02,1.261e+01
2.322e-02,1.188e+01
2.377e-02,1.119e+01
2.432e-02,1.055e+01
2.486e-02,9.947e+00
2.541e-02,9.383e+00
2.596e-02,8.855e+00
2.650e-02,8.361e+00
2.705e-02,7.897e+00
2.759e-02,7.462e+00
2.814e-02,7.054e+00
2.869e-02,6.671e+00
2.923e-02,6.311e+00
2.978e-02,5.974e+00
3.033e-02,5.656e+00
3.087e-02,5.358e+00
3.142e-02,5.077e+00
3.197e-02,4.813e+00
3.251e-02,4.564e+00
3.306e-02,4.330e+00
3.361e-02,4.110e+00
3.415e-02,3.902e+00
3.470e-02,3.706e+00
3.524e-02,3.521e+00
3.579e-02,3.346e+00
3.634e-02,3.182e+00
3.688e-02,3.026e+00
3.743e-02,2.879e+00
3.798e-02,2.740e+00
3.852e-02,2.609e+00
3.907e-02,2.485e+00
3.962e-02,2.368e+00
4.016e-02,2.256e+00
4.071e-02,2.151e+00
4.126e-02,2.051e+00
4.180e-02,1.957e+00
4.235e-02,1.867e+00
4.289e-02,1.782e+00
4.344e-02,1.702e+00
4.399e-02,1.625e+00
4.453e-02,1.553e+00
4.508e-02,1.484e+00
4.563e-02,1.419e+00
4.617e-02,1.356e+00
4.672e-02,1.297e+00
4.727e-02,1.241e+00
4.781e-02,1.188e+00
4.836e-02,1.137e+00
4.891e-02,1.089e+00
4.945e-02,1.043e+00
5.000e-02,9.989e-01
5.054e-02,9.571e-01
5.109e-02,9.174e-01
5.164e-02,8.795e-01
5.218e-02,8.434e-01
5.273e-02,8.089e-01
5.328e-02,7.761e-01
5.382e-02,7.447e-01
5.437e-02,7.148e-01
5.492e-02,6.863e-01
5.546e-02,6.590e-01
5.601e-02,6.330e-01
5.655e-02,6.081e-01
5.710e-02,5.843e-01
5.765e-02,5.616e-01
5.819e-02,5.399e-01
5.874e-02,5.191e-01
5.929e-02,4.993e-01
5.983e-02,4.803e-01
6.038e-02,4.621e-01
6.093e-02,4.447e-01
6.147e-02,4.280e-01
6.202e-02,4.120e-01
6.257e-02,3.967e-01
6.311e-02,3.821e-01
6.366e-02,3.680e-01
6.420e-02,3.546e-01
6.475e-02,3.417e-01
6.530e-02,3.293e-01
6.584e-02,3.175e-01
6.639e-02,3.061e-01
6.694e-02,2.952e-01
6.748e-02,2.847e-01
6.803e-02,2.746e-01
6.858e-02,2.649e-01
6.912e-02,2.557e-01
6.967e-02,2.468e-01
7.022e-02,2.382e-01
7.076e-02,2.300e-01
7.131e-02,2.221e-01
7.185e-02,2.145e-01
7.240e-02,2.072e-01
7.295e-02,2.001e-01
7.349e-02,1.934e-01
7.404e-02,1.869e-01
7.459e-02,1.806e-01
7.513e-02,1.746e-01
7.568e-02,1.688e-01
7.623e-02,1.633e-01
7.677e-02,1.579e-01
7.732e-02,1.527e-01
7.787e-02,1.477e-01
7.841e-02,1.429e-01
7.896e-02,1.383e-01
7.950e-02,1.339e-01
8.005e-02,1.296e-01
8.060e-02,1.255e-01
8.114e-02,1.215e-01
8.169e-02,1.176e-01
8.224e-02,1.139e-01
8.278e-02,1.103e-01
8.333e-02,1.069e-01
8.388e-02,1.036e-01
8.442e-02,1.004e-01
8.497e-02,9.725e-02
8.552e-02,9.426e-02
8.606e-02,9.137e-02
8.661e-02,8.858e-02
8.715e-02,8.589e-02
8.770e-02,8.329e-02
8.825e-02,8.078e-02
8.879e-02,7.835e-02
8.934e-02,7.601e-02
8.989e-02,7.374e-02
9.043e-02,7.155e-02
9.098e-02,6.943e-02
9.153e-02,6.739e-02
9.207e-02,6.541e-02
9.262e-02,6.349e-02
9.317e-02,6.164e-02
9.371e-02,5.985e-02
9.426e-02,5.812e-02
9.480e-02,5.645e-02
9.535e-02,5.483e-02
9.590e-02,5.326e-02
9.644e-02,5.174e-02
9.699e-02,5.027e-02
9.754e-02,4.885e-02
9.808e-02,4.747e-02
9.863e-02,4.613e-02
9.918e-02,4.484e-02
9.972e-02,4.359e-02
1.003e-01,4.238e-02
1.008e-01,4.121e-02
1.014e-01,4.007e-02
1.019e-01,3.897e-02
1.025e-01,3.790e-02
1.030e-01,3.686e-02
1.035e-01,3.586e-02
1.041e-01,3.488e-02
1.046e-01,3.394e-02
1.052e-01,3.303e-02
1.057e-01,3.214e-02
1.063e-01,3.128e-02
1.068e-01,3.044e-02
1.074e-01,2.963e-02
1.079e-01,2.885e-02
1.085e-01,2.809e-02
1.090e-01,2.735e-02
