transmittance,probability_density
7.173e-01,
7.188e-01,
7.202e-01,
7.216e-01,
7.230e-01,
7.244e-01,
7.258e-01,
7.273e-01,
7.287e-01,
7.301e-01,
7.315e-01,
7.329e-01,
7.343e-01,
7.358e-01,
7.372e-01,
7.386e-01,
7.400e-01,
7.414e-01,
7.428e-01,
7.443e-01,
7.457e-01,
7.471e-01,
7.485e-01,
7.499e-01,
7.513e-01,
7.528e-01,
7.542e-01,
7.556e-01,
7.570e-01,
7.584e-01,
7.598e-01,
7.613e-01,
7.627e-01,
7.641e-01,
7.655e-01,
7.669e-01,
7.684e-01,
7.698e-01,
7.712e-01,
7.726e-01,
7.740e-01,
7.754e-01,
7.769e-01,
7.783e-01,
7.797e-01,
7.811e-01,
7.825e-01,
7.839e-01,
7.854e-01,
7.868e-01,
7.882e-01,
7.896e-01,
7.910e-01,
7.924e-01,
7.939e-01,
7.953e-01,
7.967e-01,
7.981e-01,
7.995e-01,
8.009e-01,
8.024e-01,
8.038e-01,
8.052e-01,
8.066e-01,
8.080e-01,
8.094e-01,
8.109e-01,
8.123e-01,
8.137e-01,
8.151e-01,
8.165e-01,
8.179e-01,
8.194e-01,
8.208e-01,
8.222e-01,
8.236e-01,
8.250e-01,
8.264e-01,
8.279e-01,
8.293e-01,
8.307e-01,
8.321e-01,
8.335e-01,
8.349e-01,
8.364e-01,
8.378e-01,
8.392e-01,
8.406e-01,
8.420e-01,
8.434e-01,
8.449e-01,
8.463e-01,
8.477e-01,
8.491e-01,
8.505e-01,
8.519e-01,
8.534e-01,
8.548e-01,
8.562e-01,
8.576e-01,
8.590e-01,
8.604e-01,
8.619e-01,
8.633e-01,
8.647e-01,
8.661e-01,
8.675e-01,
8.689e-01,
8.704e-01,
8.718e-01,
8.732e-01,
8.746e-01,
8.760e-01,
8.774e-01,
8.789e-01,
8.803e-01,
8.817e-01,
8.831e-01,
8.845e-01,
8.859e-01,
8.874e-01,
8.888e-01,
8.902e-01,
8.916e-01,
8.930e-01,
8.944e-01,
8.959e-01,
8.973e-01,
8.987e-01,
9.001e-01,
9.015e-01,
9.029e-01,
9.044e-01,
9.058e-01,
9.072e-01,
9.086e-01,
9.100e-01,
9.114e-01,
9.129e-01,
9.143e-01,
9.157e-01,
9.171e-01,
9.185e-01,
9.199e-01,
9.214e-01,
9.228e-01,
9.242e-01,
9.256e-01,
9.270e-01,
9.285e-01,
9.299e-01,
9.313e-01,
9.327e-01,
9.341e-01,
9.355e-01,
9.370e-01,
9.384e-01,
9.398e-01,
9.412e-01,
9.426e-01,
9.440e-01,
9.455e-01,
9.469e-01,
9.483e-01,
9.497e-01,
9.511e-01,
9.525e-01,
9.540e-01,
9.554e-01,
9.568e-01,
9.582e-01,
9.596e-01,
9.610e-01,
9.625e-01,
9.639e-01,
9.653e-01,
9.667e-01,
9.681e-01,
9.695e-01,
9.710e-01,
9.724e-01,
9.738e-01,
9.752e-01,
9.766e-01,
9.780e-01,
9.795e-01,
9.809e-01,
9.823e-01,
9.837e-01,
9.851e-01,
9.865e-01,
9.880e-01,
9.894e-01,
9.908e-01,
9.922e-01,
9.936e-01,
9.950e-01,
9.965e-01,
9.979e-01,
9.993e-01,
