transmittance,probability_density
6.644e-01,
6.661e-01,
6.678e-01,
6.694e-01,
6.711e-01,
6.728e-01,
6.745e-01,
6.762e-01,
6.778e-01,
6.795e-01,
6.812e-01,
6.829e-01,
6.846e-01,
6.863e-01,
6.879e-01,
6.896e-01,
6.913e-01,
6.930e-01,
6.947e-01,
6.963e-01,
6.980e-01,
6.997e-01,
7.014e-01,
7.031e-01,
7.048e-01,
7.064e-01,
7.081e-01,
7.098e-01,
7.115e-01,
7.132e-01,
7.149e-01,
7.165e-01,
7.182e-01,
7.199e-01,
7.216e-01,
7.233e-01,
7.249e-01,
7.266e-01,
7.283e-01,
7.300e-01,
7.317e-01,
7.334e-01,
7.350e-01,
7.367e-01,
7.384e-01,
7.401e-01,
7.418e-01,
7.435e-01,
7.451e-01,
7.468e-01,
7.485e-01,
7.502e-01,
7.519e-01,
7.535e-01,
7.552e-01,
7.569e-01,
7.586e-01,
7.603e-01,
7.620e-01,
7.636e-01,
7.653e-01,
7.670e-01,
7.687e-01,
7.704e-01,
7.721e-01,
7.737e-01,
7.754e-01,
7.771e-01,
7.788e-01,
7.805e-01,
7.821e-01,
7.838e-01,
7.855e-01,
7.872e-01,
7.889e-01,
7.906e-01,
7.922e-01,
7.939e-01,
7.956e-01,
7.973e-01,
7.990e-01,
8.007e-01,
8.023e-01,
8.040e-01,
8.057e-01,
8.074e-01,
8.091e-01,
8.107e-01,
8.124e-01,
8.141e-01,
8.158e-01,
8.175e-01,
8.192e-01,
8.208e-01,
8.225e-01,
8.242e-01,
8.259e-01,
8.276e-01,
8.292e-01,
8.309e-01,
8.326e-01,
8.343e-01,
8.360e-01,
8.377e-01,
8.393e-01,
8.410e-01,
8.427e-01,
8.444e-01,
8.461e-01,
8.478e-01,
8.494e-01,
8.511e-01,
8.528e-01,
8.545e-01,
8.562e-01,
8.578e-01,
8.595e-01,
8.612e-01,
8.629e-01,
8.646e-01,
8.663e-01,
8.679e-01,
8.696e-01,
8.713e-01,
8.730e-01,
8.747e-01,
8.764e-01,
8.780e-01,
8.797e-01,
8.814e-01,
8.831e-01,
8.848e-01,
8.864e-01,
8.881e-01,
8.898e-01,
8.915e-01,
8.932e-01,
8.949e-01,
8.965e-01,
8.982e-01,
8.999e-01,
9.016e-01,
9.033e-01,
9.050e-01,
9.066e-01,
9.083e-01,
9.100e-01,
9.117e-01,
9.134e-01,
9.150e-01,
9.167e-01,
9.184e-01,
9.201e-01,
9.218e-01,
9.235e-01,
9.251e-01,
9.268e-01,
9.285e-01,
9.302e-01,
9.319e-01,
9.336e-01,
9.352e-01,
9.369e-01,
9.386e-01,
9.403e-01,
9.420e-01,
9.436e-01,
9.453e-01,
9.470e-01,
9.487e-01,
9.504e-01,
9.521e-01,
9.537e-01,
9.554e-01,
9.571e-01,
9.588e-01,
9.605e-01,
9.621e-01,
9.638e-01,
9.655e-01,
9.672e-01,
9.689e-01,
9.706e-01,
9.722e-01,
9.739e-01,
9.756e-01,
9.773e-01,
9.790e-01,
9.807e-01,
9.823e-01,
9.840e-01,
9.857e-01,
9.874e-01,
9.891e-01,
9.907e-01,
9.924e-01,
9.941e-01,
9.958e-01,
9.975e-01,
9.992e-01,
