transmittance,probability_density
7.377e-01,
7.391e-01,
7.404e-01,
7.417e-01,
7.430e-01,
7.443e-01,
7.456e-01,
7.470e-01,
7.483e-01,
7.496e-01,
7.509e-01,
7.522e-01,
7.535e-01,
7.548e-01,
7.562e-01,
7.575e-01,
7.588e-01,
7.601e-01,
7.614e-01,
7.627e-01,
7.640e-01,
7.654e-01,
7.667e-01,
7.680e-01,
7.693e-01,
7.706e-01,
7.719e-01,
7.732e-01,
7.746e-01,
7.759e-01,
7.772e-01,
7.785e-01,
7.798e-01,
7.811e-01,
7.824e-01,
7.838e-01,
7.851e-01,
7.864e-01,
7.877e-01,
7.890e-01,
7.903e-01,
7.916e-01,
7.930e-01,
7.943e-01,
7.956e-01,
7.969e-01,
7.982e-01,
7.995e-01,
8.008e-01,
8.022e-01,
8.035e-01,
8.048e-01,
8.061e-01,
8.074e-01,
8.087e-01,
8.100e-01,
8.114e-01,
8.127e-01,
8.140e-01,
8.153e-01,
8.166e-01,
8.179e-01,
8.193e-01,
8.206e-01,
8.219e-01,
8.232e-01,
8.245e-01,
8.258e-01,
8.271e-01,
8.285e-01,
8.298e-01,
8.311e-01,
8.324e-01,
8.337e-01,
8.350e-01,
8.363e-01,
8.377e-01,
8.390e-01,
8.403e-01,
8.416e-01,
8.429e-01,
8.442e-01,
8.455e-01,
8.469e-01,
8.482e-01,
8.495e-01,
8.508e-01,
8.521e-01,
8.534e-01,
8.547e-01,
8.561e-01,
8.574e-01,
8.587e-01,
8.600e-01,
8.613e-01,
8.626e-01,
8.639e-01,
8.653e-01,
8.666e-01,
8.679e-01,
8.692e-01,
8.705e-01,
8.718e-01,
8.731e-01,
8.745e-01,
8.758e-01,
8.771e-01,
8.784e-01,
8.797e-01,
8.810e-01,
8.823e-01,
8.837e-01,
8.850e-01,
8.863e-01,
8.876e-01,
8.889e-01,
8.902e-01,
8.916e-01,
8.929e-01,
8.942e-01,
8.955e-01,
8.968e-01,
8.981e-01,
8.994e-01,
9.008e-01,
9.021e-01,
9.034e-01,
9.047e-01,
9.060e-01,
9.073e-01,
9.086e-01,
9.100e-01,
9.113e-01,
9.126e-01,
9.139e-01,
9.152e-01,
9.165e-01,
9.178e-01,
9.192e-01,
9.205e-01,
9.218e-01,
9.231e-01,
9.244e-01,
9.257e-01,
9.270e-01,
9.284e-01,
9.297e-01,
9.310e-01,
9.323e-01,
9.336e-01,
9.349e-01,
9.362e-01,
9.376e-01,
9.389e-01,
9.402e-01,
9.415e-01,
9.428e-01,
9.441e-01,
9.454e-01,
9.468e-01,
9.481e-01,
9.494e-01,
9.507e-01,
9.520e-01,
9.533e-01,
9.546e-01,
9.560e-01,
9.573e-01,
9.586e-01,
9.599e-01,
9.612e-01,
9.625e-01,
9.639e-01,
9.652e-01,
9.665e-01,
9.678e-01,
9.691e-01,
9.704e-01,
9.717e-01,
9.731e-01,
9.744e-01,
9.757e-01,
9.770e-01,
9.783e-01,
9.796e-01,
9.809e-01,
9.823e-01,
9.836e-01,
9.849e-01,
9.862e-01,
9.875e-01,
9.888e-01,
9.901e-01,
9.915e-01,
9.928e-01,
9.941e-01,
9.954e-01,
9.967e-01,
9.980e-01,
9.993e-01,
