transmittance,probability_density
7.743e-01,
7.754e-01,
7.766e-01,
7.777e-01,
7.788e-01,
7.799e-01,
7.811e-01,
7.822e-01,
7.833e-01,
7.845e-01,
7.856e-01,
7.867e-01,
7.879e-01,
7.890e-01,
7.901e-01,
7.913e-01,
7.924e-01,
7.935e-01,
7.947e-01,
7.958e-01,
7.969e-01,
7.981e-01,
7.992e-01,
8.003e-01,
8.014e-01,
8.026e-01,
8.037e-01,
8.048e-01,
8.060e-01,
8.071e-01,
8.082e-01,
8.094e-01,
8.105e-01,
8.116e-01,
8.128e-01,
8.139e-01,
8.150e-01,
8.162e-01,
8.173e-01,
8.184e-01,
8.195e-01,
8.207e-01,
8.218e-01,
8.229e-01,
8.241e-01,
8.252e-01,
8.263e-01,
8.275e-01,
8.286e-01,
8.297e-01,
8.309e-01,
8.320e-01,
8.331e-01,
8.343e-01,
8.354e-01,
8.365e-01,
8.376e-01,
8.388e-01,
8.399e-01,
8.410e-01,
8.422e-01,
8.433e-01,
8.444e-01,
8.456e-01,
8.467e-01,
8.478e-01,
8.490e-01,
8.501e-01,
8.512e-01,
8.524e-01,
8.535e-01,
8.546e-01,
8.558e-01,
8.569e-01,
8.580e-01,
8.591e-01,
8.603e-01,
8.614e-01,
8.625e-01,
8.637e-01,
8.648e-01,
8.659e-01,
8.671e-01,
8.682e-01,
8.693e-01,
8.705e-01,
8.716e-01,
8.727e-01,
8.739e-01,
8.750e-01,
8.761e-01,
8.772e-01,
8.784e-01,
8.795e-01,
8.806e-01,
8.818e-01,
8.829e-01,
8.840e-01,
8.852e-01,
8.863e-01,
8.874e-01,
8.886e-01,
8.897e-01,
8.908e-01,
8.920e-01,
8.931e-01,
8.942e-01,
8.953e-01,
8.965e-01,
8.976e-01,
8.987e-01,
8.999e-01,
9.010e-01,
9.021e-01,
9.033e-01,
9.044e-01,
9.055e-01,
9.067e-01,
9.078e-01,
9.089e-01,
9.101e-01,
9.112e-01,
9.123e-01,
9.135e-01,
9.146e-01,
9.157e-01,
9.168e-01,
9.180e-01,
9.191e-01,
9.202e-01,
9.214e-01,
9.225e-01,
9.236e-01,
9.248e-01,
9.259e-01,
9.270e-01,
9.282e-01,
9.293e-01,
9.304e-01,
9.316e-01,
9.327e-01,
9.338e-01,
9.349e-01,
9.361e-01,
9.372e-01,
9.383e-01,
9.395e-01,
9.406e-01,
9.417e-01,
9.429e-01,
9.440e-01,
9.451e-01,
9.463e-01,
9.474e-01,
9.485e-01,
9.497e-01,
9.508e-01,
9.519e-01,
9.530e-01,
9.542e-01,
9.553e-01,
9.564e-01,
9.576e-01,
9.587e-01,
9.598e-01,
9.610e-01,
9.621e-01,
9.632e-01,
9.644e-01,
9.655e-01,
9.666e-01,
9.678e-01,
9.689e-01,
9.700e-01,
9.712e-01,
9.723e-01,
9.734e-01,
9.745e-01,
9.757e-01,
9.768e-01,
9.779e-01,
9.791e-01,
9.802e-01,
9.813e-01,
9.825e-01,
9.836e-01,
9.847e-01,
9.859e-01,
9.870e-01,
9.881e-01,
9.893e-01,
9.904e-01,
9.915e-01,
9.926e-01,
9.938e-01,
9.949e-01,
9.960e-01,
9.972e-01,
9.983e-01,
9.994e-01,
