transmittance,probability_density
1.876e-03,0.000e+00
5.628e-03,0.000e+00
9.380e-03,0.000e+00
1.313e-02,0.000e+00
1.688e-02,0.000e+00
2.064e-02,0.000e+00
2.439e-02,0.000e+00
2.814e-02,0.000e+00
3.189e-02,0.000e+00
3.564e-02,0.000e+00
3.940e-02,0.000e+00
4.315e-02,0.000e+00
4.690e-02,2.666e-03
5.065e-02,2.666e-03
5.441e-02,0.000e+00
5.816e-02,0.000e+00
6.191e-02,0.000e+00
6.566e-02,7.999e-03
6.941e-02,2.666e-03
7.317e-02,5.333e-03
7.692e-02,1.600e-02
8.067e-02,2.666e-03
8.442e-02,1.333e-02
8.817e-02,1.600e-02
9.193e-02,1.067e-02
9.568e-02,1.600e-02
9.943e-02,2.400e-02
1.032e-01,1.333e-02
1.069e-01,1.333e-02
1.107e-01,4.266e-02
1.144e-01,1.866e-02
1.182e-01,5.066e-02
1.219e-01,2.933e-02
1.257e-01,4.799e-02
1.294e-01,4.533e-02
1.332e-01,4.266e-02
1.370e-01,6.933e-02
1.407e-01,7.466e-02
1.445e-01,7.999e-02
1.482e-01,9.332e-02
1.520e-01,9.066e-02
1.557e-01,1.067e-01
1.595e-01,1.466e-01
1.632e-01,1.840e-01
1.670e-01,2.213e-01
1.707e-01,2.186e-01
1.745e-01,2.213e-01
1.782e-01,2.480e-01
1.820e-01,2.426e-01
1.857e-01,2.800e-01
1.895e-01,3.040e-01
1.932e-01,3.386e-01
1.970e-01,4.080e-01
2.007e-01,3.706e-01
2.045e-01,4.399e-01
2.082e-01,4.080e-01
2.120e-01,5.706e-01
2.157e-01,5.813e-01
2.195e-01,6.213e-01
2.232e-01,7.226e-01
2.270e-01,7.306e-01
2.308e-01,8.212e-01
2.345e-01,7.706e-01
2.383e-01,9.092e-01
2.420e-01,9.519e-01
2.458e-01,1.083e+00
2.495e-01,1.064e+00
2.533e-01,1.285e+00
2.570e-01,1.365e+00
2.608e-01,1.347e+00
2.645e-01,1.528e+00
2.683e-01,1.536e+00
2.720e-01,1.778e+00
2.758e-01,1.834e+00
2.795e-01,1.837e+00
2.833e-01,2.048e+00
2.870e-01,2.098e+00
2.908e-01,2.218e+00
2.945e-01,2.296e+00
2.983e-01,2.562e+00
3.020e-01,2.592e+00
3.058e-01,2.896e+00
3.095e-01,3.106e+00
3.133e-01,3.317e+00
3.171e-01,3.400e+00
3.208e-01,3.666e+00
3.246e-01,3.698e+00
3.283e-01,4.138e+00
3.321e-01,4.210e+00
3.358e-01,4.447e+00
3.396e-01,4.581e+00
3.433e-01,5.194e+00
3.471e-01,5.271e+00
3.508e-01,5.247e+00
3.546e-01,5.885e+00
3.583e-01,6.103e+00
3.621e-01,6.186e+00
3.658e-01,6.426e+00
3.696e-01,6.391e+00
3.733e-01,6.853e+00
3.771e-01,6.738e+00
3.808e-01,6.975e+00
3.846e-01,6.922e+00
3.883e-01,6.762e+00
3.921e-01,7.108e+00
3.958e-01,7.031e+00
3.996e-01,7.090e+00
4.034e-01,6.925e+00
4.071e-01,6.735e+00
4.109e-01,6.535e+00
4.146e-01,6.050e+00
4.184e-01,6.135e+00
4.221e-01,5.749e+00
4.259e-01,5.501e+00
4.296e-01,4.823e+00
4.334e-01,4.842e+00
4.371e-01,4.237e+00
4.409e-01,3.933e+00
4.446e-01,3.576e+00
4.484e-01,3.192e+00
4.521e-01,2.901e+00
4.559e-01,2.448e+00
4.596e-01,2.093e+00
4.634e-01,1.794e+00
4.671e-01,1.605e+00
4.709e-01,1.384e+00
4.746e-01,1.184e+00
4.784e-01,9.412e-01
4.821e-01,8.612e-01
4.859e-01,6.346e-01
4.896e-01,5.893e-01
4.934e-01,4.133e-01
4.972e-01,4.479e-01
5.009e-01,2.853e-01
5.047e-01,1.920e-01
5.084e-01,1.920e-01
5.122e-01,1.733e-01
5.159e-01,1.173e-01
5.197e-01,9.066e-02
5.234e-01,4.533e-02
5.272e-01,3.466e-02
5.309e-01,3.733e-02
5.347e-01,1.600e-02
5.384e-01,1.067e-02
5.422e-01,1.067e-02
5.459e-01,7.999e-03
5.497e-01,5.333e-03
5.534e-01,5.333e-03
5.572e-01,0.000e+00
5.609e-01,0.000e+00
5.647e-01,0.000e+00
5.684e-01,0.000e+00
5.722e-01,2.666e-03
5.759e-01,0.000e+00
5.797e-01,0.000e+00
5.835e-01,0.000e+00
5.872e-01,0.000e+00
5.910e-01,0.000e+00
5.947e-01,0.000e+00
5.985e-01,0.000e+00
6.022e-01,0.000e+00
6.060e-01,0.000e+00
6.097e-01,0.000e+00
6.135e-01,0.000e+00
6.172e-01,0.000e+00
6.210e-01,0.000e+00
6.247e-01,0.000e+00
6.285e-01,0.000e+00
6.322e-01,0.000e+00
6.360e-01,0.000e+00
6.397e-01,0.000e+00
6.435e-01,0.000e+00
6.472e-01,0.000e+00
6.510e-01,0.000e+00
6.547e-01,0.000e+00
6.585e-01,0.000e+00
6.622e-01,0.000e+00
6.660e-01,0.000e+00
6.697e-01,0.000e+00
6.735e-01,0.000e+00
6.773e-01,0.000e+00
6.810e-01,0.000e+00
6.848e-01,0.000e+00
6.885e-01,0.000e+00
6.923e-01,0.000e+00
6.960e-01,0.000e+00
6.998e-01,0.000e+00
7.035e-01,0.000e+00
7.073e-01,0.000e+00
7.110e-01,0.000e+00
7.148e-01,0.000e+00
7.185e-01,0.000e+00
7.223e-01,0.000e+00
7.260e-01,0.000e+00
7.298e-01,0.000e+00
7.335e-01,0.000e+00
7.373e-01,0.000e+00
7.410e-01,0.000e+00
7.448e-01,0.000e+00
7.485e-01,0.000e+00
