transmittance,probability_density
6.762e-04,0.000e+00
2.029e-03,0.000e+00
3.381e-03,0.000e+00
4.734e-03,0.000e+00
6.086e-03,0.000e+00
7.438e-03,0.000e+00
8.791e-03,0.000e+00
1.014e-02,0.000e+00
1.150e-02,0.000e+00
1.285e-02,2.220e-02
1.420e-02,1.480e-02
1.555e-02,4.440e-02
1.691e-02,4.440e-02
1.826e-02,4.440e-02
1.961e-02,5.920e-02
2.096e-02,8.140e-02
2.232e-02,9.620e-02
2.367e-02,2.072e-01
2.502e-02,1.554e-01
2.637e-02,2.738e-01
2.773e-02,2.072e-01
2.908e-02,4.144e-01
3.043e-02,3.404e-01
3.178e-02,4.884e-01
3.314e-02,5.106e-01
3.449e-02,5.180e-01
3.584e-02,6.586e-01
3.719e-02,9.694e-01
3.854e-02,7.622e-01
3.990e-02,1.125e+00
4.125e-02,1.029e+00
4.260e-02,1.295e+00
4.395e-02,1.465e+00
4.531e-02,1.791e+00
4.666e-02,1.776e+00
4.801e-02,1.998e+00
4.936e-02,2.124e+00
5.072e-02,2.553e+00
5.207e-02,2.908e+00
5.342e-02,2.953e+00
5.477e-02,3.611e+00
5.613e-02,3.900e+00
5.748e-02,4.137e+00
5.883e-02,4.566e+00
6.018e-02,4.795e+00
6.154e-02,5.210e+00
6.289e-02,5.898e+00
6.424e-02,6.246e+00
6.559e-02,6.815e+00
6.695e-02,7.925e+00
6.830e-02,8.147e+00
6.965e-02,9.146e+00
7.100e-02,1.015e+01
7.236e-02,1.053e+01
7.371e-02,1.078e+01
7.506e-02,1.193e+01
7.641e-02,1.365e+01
7.777e-02,1.381e+01
7.912e-02,1.443e+01
8.047e-02,1.562e+01
8.182e-02,1.723e+01
8.318e-02,1.772e+01
8.453e-02,1.902e+01
8.588e-02,1.910e+01
8.723e-02,2.017e+01
8.859e-02,2.121e+01
8.994e-02,2.238e+01
9.129e-02,2.289e+01
9.264e-02,2.332e+01
9.400e-02,2.333e+01
9.535e-02,2.375e+01
9.670e-02,2.358e+01
9.805e-02,2.331e+01
9.941e-02,2.311e+01
1.008e-01,2.193e+01
1.021e-01,2.174e+01
1.035e-01,2.036e+01
1.048e-01,1.965e+01
1.062e-01,1.861e+01
1.075e-01,1.663e+01
1.089e-01,1.603e+01
1.102e-01,1.412e+01
1.116e-01,1.248e+01
1.129e-01,1.188e+01
1.143e-01,9.983e+00
1.156e-01,9.065e+00
1.170e-01,7.755e+00
1.183e-01,6.801e+00
1.197e-01,5.957e+00
1.210e-01,5.039e+00
1.224e-01,4.188e+00
1.237e-01,3.693e+00
1.251e-01,2.738e+00
1.265e-01,2.176e+00
1.278e-01,1.820e+00
1.292e-01,1.635e+00
1.305e-01,1.502e+00
1.319e-01,1.265e+00
1.332e-01,8.584e-01
1.346e-01,6.512e-01
1.359e-01,5.254e-01
1.373e-01,5.476e-01
1.386e-01,3.182e-01
1.400e-01,2.738e-01
1.413e-01,1.702e-01
1.427e-01,1.480e-01
1.440e-01,1.406e-01
1.454e-01,1.110e-01
1.467e-01,8.140e-02
1.481e-01,6.660e-02
1.494e-01,2.960e-02
1.508e-01,2.220e-02
1.522e-01,1.480e-02
1.535e-01,2.220e-02
1.549e-01,0.000e+00
1.562e-01,7.400e-03
1.576e-01,1.480e-02
1.589e-01,0.000e+00
1.603e-01,0.000e+00
1.616e-01,0.000e+00
1.630e-01,0.000e+00
1.643e-01,0.000e+00
1.657e-01,0.000e+00
1.670e-01,1.480e-02
1.684e-01,0.000e+00
1.697e-01,0.000e+00
1.711e-01,0.000e+00
1.724e-01,0.000e+00
1.738e-01,0.000e+00
1.751e-01,0.000e+00
1.765e-01,0.000e+00
1.778e-01,0.000e+00
1.792e-01,0.000e+00
1.806e-01,0.000e+00
1.819e-01,0.000e+00
1.833e-01,0.000e+00
1.846e-01,0.000e+00
1.860e-01,0.000e+00
1.873e-01,0.000e+00
1.887e-01,0.000e+00
1.900e-01,0.000e+00
1.914e-01,0.000e+00
1.927e-01,0.000e+00
1.941e-01,0.000e+00
1.954e-01,0.000e+00
1.968e-01,0.000e+00
1.981e-01,0.000e+00
1.995e-01,0.000e+00
2.008e-01,0.000e+00
2.022e-01,0.000e+00
2.035e-01,0.000e+00
2.049e-01,0.000e+00
2.062e-01,0.000e+00
2.076e-01,0.000e+00
2.090e-01,0.000e+00
2.103e-01,0.000e+00
2.117e-01,0.000e+00
2.130e-01,0.000e+00
2.144e-01,0.000e+00
2.157e-01,0.000e+00
2.171e-01,0.000e+00
2.184e-01,0.000e+00
2.198e-01,0.000e+00
2.211e-01,0.000e+00
2.225e-01,0.000e+00
2.238e-01,0.000e+00
2.252e-01,0.000e+00
2.265e-01,0.000e+00
2.279e-01,0.000e+00
2.292e-01,0.000e+00
2.306e-01,0.000e+00
2.319e-01,0.000e+00
2.333e-01,0.000e+00
2.347e-01,0.000e+00
2.360e-01,0.000e+00
2.374e-01,0.000e+00
2.387e-01,0.000e+00
2.401e-01,0.000e+00
2.414e-01,0.000e+00
2.428e-01,0.000e+00
2.441e-01,0.000e+00
2.455e-01,0.000e+00
2.468e-01,0.000e+00
2.482e-01,0.000e+00
2.495e-01,0.000e+00
2.509e-01,0.000e+00
2.522e-01,0.000e+00
2.536e-01,0.000e+00
2.549e-01,0.000e+00
2.563e-01,0.000e+00
2.576e-01,0.000e+00
2.590e-01,0.000e+00
2.603e-01,0.000e+00
2.617e-01,0.000e+00
2.631e-01,0.000e+00
2.644e-01,0.000e+00
2.658e-01,0.000e+00
2.671e-01,0.000e+00
2.685e-01,0.000e+00
2.698e-01,0.000e+00
