transmittance,probability_density
8.377e-01,0.000e+00
8.385e-01,0.000e+00
8.393e-01,0.000e+00
8.401e-01,0.000e+00
8.409e-01,0.000e+00
8.417e-01,0.000e+00
8.426e-01,0.000e+00
8.434e-01,0.000e+00
8.442e-01,0.000e+00
8.450e-01,0.000e+00
8.458e-01,0.000e+00
8.466e-01,0.000e+00
8.474e-01,0.000e+00
8.483e-01,0.000e+00
8.491e-01,0.000e+00
8.499e-01,0.000e+00
8.507e-01,0.000e+00
8.515e-01,0.000e+00
8.523e-01,0.000e+00
8.531e-01,0.000e+00
8.540e-01,0.000e+00
8.548e-01,0.000e+00
8.556e-01,0.000e+00
8.564e-01,0.000e+00
8.572e-01,0.000e+00
8.580e-01,0.000e+00
8.588e-01,0.000e+00
8.596e-01,0.000e+00
8.605e-01,0.000e+00
8.613e-01,0.000e+00
8.621e-01,0.000e+00
8.629e-01,0.000e+00
8.637e-01,0.000e+00
8.645e-01,0.000e+00
8.653e-01,0.000e+00
8.662e-01,0.000e+00
8.670e-01,0.000e+00
8.678e-01,0.000e+00
8.686e-01,0.000e+00
8.694e-01,0.000e+00
8.702e-01,0.000e+00
8.710e-01,0.000e+00
8.719e-01,0.000e+00
8.727e-01,0.000e+00
8.735e-01,0.000e+00
8.743e-01,0.000e+00
8.751e-01,0.000e+00
8.759e-01,0.000e+00
8.767e-01,0.000e+00
8.775e-01,0.000e+00
8.784e-01,0.000e+00
8.792e-01,0.000e+00
8.800e-01,0.000e+00
8.808e-01,0.000e+00
8.816e-01,0.000e+00
8.824e-01,0.000e+00
8.832e-01,0.000e+00
8.841e-01,0.000e+00
8.849e-01,0.000e+00
8.857e-01,0.000e+00
8.865e-01,0.000e+00
8.873e-01,0.000e+00
8.881e-01,0.000e+00
8.889e-01,0.000e+00
8.898e-01,0.000e+00
8.906e-01,0.000e+00
8.914e-01,0.000e+00
8.922e-01,0.000e+00
8.930e-01,0.000e+00
8.938e-01,0.000e+00
8.946e-01,0.000e+00
8.954e-01,0.000e+00
8.963e-01,0.000e+00
8.971e-01,0.000e+00
8.979e-01,0.000e+00
8.987e-01,0.000e+00
8.995e-01,0.000e+00
9.003e-01,0.000e+00
9.011e-01,0.000e+00
9.020e-01,0.000e+00
9.028e-01,0.000e+00
9.036e-01,0.000e+00
9.044e-01,0.000e+00
9.052e-01,0.000e+00
9.060e-01,0.000e+00
9.068e-01,0.000e+00
9.077e-01,0.000e+00
9.085e-01,0.000e+00
9.093e-01,0.000e+00
9.101e-01,0.000e+00
9.109e-01,0.000e+00
9.117e-01,0.000e+00
9.125e-01,0.000e+00
9.133e-01,0.000e+00
9.142e-01,0.000e+00
9.150e-01,0.000e+00
9.158e-01,0.000e+00
9.166e-01,0.000e+00
9.174e-01,0.000e+00
9.182e-01,0.000e+00
9.190e-01,0.000e+00
9.199e-01,0.000e+00
9.207e-01,0.000e+00
9.215e-01,0.000e+00
9.223e-01,0.000e+00
9.231e-01,0.000e+00
9.239e-01,0.000e+00
9.247e-01,0.000e+00
9.256e-01,0.000e+00
9.264e-01,0.000e+00
9.272e-01,1.229e-02
9.280e-01,0.000e+00
9.288e-01,0.000e+00
9.296e-01,0.000e+00
9.304e-01,1.229e-02
9.312e-01,1.229e-02
9.321e-01,1.229e-02
9.329e-01,0.000e+00
9.337e-01,0.000e+00
9.345e-01,2.458e-02
9.353e-01,0.000e+00
9.361e-01,1.229e-02
9.369e-01,0.000e+00
9.378e-01,0.000e+00
9.386e-01,0.000e+00
9.394e-01,0.000e+00
9.402e-01,0.000e+00
9.410e-01,1.229e-02
9.418e-01,1.229e-02
9.426e-01,0.000e+00
9.435e-01,0.000e+00
9.443e-01,2.458e-02
9.451e-01,1.229e-02
9.459e-01,0.000e+00
9.467e-01,0.000e+00
9.475e-01,0.000e+00
9.483e-01,2.458e-02
9.491e-01,1.229e-02
9.500e-01,2.458e-02
9.508e-01,1.229e-02
9.516e-01,4.916e-02
9.524e-01,3.687e-02
9.532e-01,6.145e-02
9.540e-01,2.458e-02
9.548e-01,0.000e+00
9.557e-01,4.916e-02
9.565e-01,1.229e-02
9.573e-01,3.687e-02
9.581e-01,1.229e-02
9.589e-01,3.687e-02
9.597e-01,2.458e-02
9.605e-01,6.145e-02
9.614e-01,7.375e-02
9.622e-01,4.916e-02
9.630e-01,9.833e-02
9.638e-01,6.145e-02
9.646e-01,6.145e-02
9.654e-01,1.475e-01
9.662e-01,1.106e-01
9.670e-01,7.375e-02
9.679e-01,8.604e-02
9.687e-01,1.598e-01
9.695e-01,1.229e-01
9.703e-01,8.604e-02
9.711e-01,2.212e-01
9.719e-01,2.089e-01
9.727e-01,1.967e-01
9.736e-01,2.335e-01
9.744e-01,2.458e-01
9.752e-01,2.089e-01
9.760e-01,3.441e-01
9.768e-01,4.302e-01
9.776e-01,3.687e-01
9.784e-01,4.425e-01
9.793e-01,5.162e-01
9.801e-01,5.162e-01
9.809e-01,7.989e-01
9.817e-01,1.069e+00
9.825e-01,1.143e+00
9.833e-01,1.254e+00
9.841e-01,1.008e+00
9.849e-01,1.819e+00
9.858e-01,1.831e+00
9.866e-01,2.188e+00
9.874e-01,2.815e+00
9.882e-01,3.233e+00
9.890e-01,3.958e+00
9.898e-01,4.412e+00
9.906e-01,6.145e+00
9.915e-01,7.657e+00
9.923e-01,1.012e+01
9.931e-01,1.261e+01
9.939e-01,1.684e+01
9.947e-01,2.400e+01
9.955e-01,3.446e+01
9.963e-01,5.311e+01
9.972e-01,8.937e+01
9.980e-01,1.685e+02
9.988e-01,3.383e+02
9.996e-01,4.367e+02
