transmittance,probability_density
1.681e-03,1.184e+00
5.042e-03,2.996e+00
8.404e-03,4.041e+00
1.177e-02,4.579e+00
1.513e-02,5.053e+00
1.849e-02,5.373e+00
2.185e-02,5.628e+00
2.521e-02,5.823e+00
2.857e-02,5.923e+00
3.194e-02,6.178e+00
3.530e-02,6.303e+00
3.866e-02,6.431e+00
4.202e-02,6.486e+00
4.538e-02,6.598e+00
4.874e-02,6.509e+00
5.210e-02,6.696e+00
5.547e-02,6.634e+00
5.883e-02,6.648e+00
6.219e-02,6.499e+00
6.555e-02,6.526e+00
6.891e-02,6.278e+00
7.227e-02,6.232e+00
7.564e-02,6.019e+00
7.900e-02,6.041e+00
8.236e-02,5.923e+00
8.572e-02,5.805e+00
8.908e-02,5.579e+00
9.244e-02,5.489e+00
9.581e-02,5.409e+00
9.917e-02,5.340e+00
1.025e-01,5.284e+00
1.059e-01,4.867e+00
1.093e-01,4.912e+00
1.126e-01,4.523e+00
1.160e-01,4.614e+00
1.193e-01,4.476e+00
1.227e-01,4.182e+00
1.261e-01,4.097e+00
1.294e-01,3.995e+00
1.328e-01,3.836e+00
1.361e-01,3.689e+00
1.395e-01,3.490e+00
1.429e-01,3.492e+00
1.462e-01,3.460e+00
1.496e-01,3.111e+00
1.530e-01,3.141e+00
1.563e-01,2.954e+00
1.597e-01,2.848e+00
1.630e-01,2.783e+00
1.664e-01,2.562e+00
1.698e-01,2.401e+00
1.731e-01,2.489e+00
1.765e-01,2.324e+00
1.798e-01,2.270e+00
1.832e-01,2.106e+00
1.866e-01,2.086e+00
1.899e-01,1.994e+00
1.933e-01,1.837e+00
1.967e-01,1.834e+00
2.000e-01,1.693e+00
2.034e-01,1.579e+00
2.067e-01,1.562e+00
2.101e-01,1.471e+00
2.135e-01,1.423e+00
2.168e-01,1.384e+00
2.202e-01,1.197e+00
2.235e-01,1.255e+00
2.269e-01,1.058e+00
2.303e-01,1.090e+00
2.336e-01,9.866e-01
2.370e-01,9.599e-01
2.404e-01,8.993e-01
2.437e-01,8.592e-01
2.471e-01,8.307e-01
2.504e-01,7.745e-01
2.538e-01,7.460e-01
2.572e-01,7.326e-01
2.605e-01,6.881e-01
2.639e-01,6.533e-01
2.672e-01,5.927e-01
2.706e-01,5.713e-01
2.740e-01,5.446e-01
2.773e-01,5.178e-01
2.807e-01,4.483e-01
2.841e-01,4.421e-01
2.874e-01,4.314e-01
2.908e-01,4.011e-01
2.941e-01,3.832e-01
2.975e-01,3.583e-01
3.009e-01,3.431e-01
3.042e-01,3.262e-01
3.076e-01,2.906e-01
3.109e-01,2.914e-01
3.143e-01,2.353e-01
3.177e-01,2.415e-01
3.210e-01,2.460e-01
3.244e-01,2.264e-01
3.278e-01,1.943e-01
3.311e-01,1.890e-01
3.345e-01,1.747e-01
3.378e-01,1.480e-01
3.412e-01,1.435e-01
3.446e-01,1.435e-01
3.479e-01,1.337e-01
3.513e-01,1.159e-01
3.546e-01,1.239e-01
3.580e-01,1.034e-01
3.614e-01,1.176e-01
3.647e-01,9.893e-02
3.681e-01,5.704e-02
3.715e-01,8.289e-02
3.748e-01,9.358e-02
3.782e-01,6.506e-02
3.815e-01,6.863e-02
3.849e-01,5.615e-02
3.883e-01,5.615e-02
3.916e-01,4.813e-02
3.950e-01,4.813e-02
3.983e-01,6.239e-02
4.017e-01,3.654e-02
4.051e-01,3.030e-02
4.084e-01,3.387e-02
4.118e-01,3.298e-02
4.152e-01,3.209e-02
4.185e-01,3.565e-02
4.219e-01,2.317e-02
4.252e-01,2.139e-02
4.286e-01,2.763e-02
4.320e-01,2.406e-02
4.353e-01,1.961e-02
4.387e-01,1.872e-02
4.421e-01,1.337e-02
4.454e-01,1.337e-02
4.488e-01,2.585e-02
4.521e-01,1.159e-02
4.555e-01,1.070e-02
4.589e-01,1.426e-02
4.622e-01,8.021e-03
4.656e-01,8.913e-03
4.689e-01,9.804e-03
4.723e-01,8.913e-03
4.757e-01,9.804e-03
4.790e-01,6.239e-03
4.824e-01,6.239e-03
4.858e-01,8.021e-03
4.891e-01,4.456e-03
4.925e-01,2.674e-03
4.958e-01,4.456e-03
4.992e-01,6.239e-03
5.026e-01,5.348e-03
5.059e-01,0.000e+00
5.093e-01,0.000e+00
5.126e-01,3.565e-03
5.160e-01,1.783e-03
5.194e-01,1.783e-03
5.227e-01,8.913e-04
5.261e-01,8.913e-04
5.295e-01,8.913e-04
5.328e-01,0.000e+00
5.362e-01,8.913e-04
5.395e-01,2.674e-03
5.429e-01,0.000e+00
5.463e-01,8.913e-04
5.496e-01,1.783e-03
5.530e-01,2.674e-03
5.563e-01,0.000e+00
5.597e-01,8.913e-04
5.631e-01,0.000e+00
5.664e-01,0.000e+00
5.698e-01,0.000e+00
5.732e-01,8.913e-04
5.765e-01,8.913e-04
5.799e-01,0.000e+00
5.832e-01,0.000e+00
5.866e-01,0.000e+00
5.900e-01,0.000e+00
5.933e-01,0.000e+00
5.967e-01,8.913e-04
6.000e-01,0.000e+00
6.034e-01,0.000e+00
6.068e-01,0.000e+00
6.101e-01,8.913e-04
6.135e-01,0.000e+00
6.169e-01,0.000e+00
6.202e-01,0.000e+00
6.236e-01,0.000e+00
6.269e-01,0.000e+00
6.303e-01,0.000e+00
6.337e-01,0.000e+00
6.370e-01,0.000e+00
6.404e-01,0.000e+00
6.437e-01,0.000e+00
6.471e-01,0.000e+00
6.505e-01,0.000e+00
6.538e-01,0.000e+00
6.572e-01,0.000e+00
6.606e-01,0.000e+00
6.639e-01,0.000e+00
6.673e-01,0.000e+00
6.706e-01,0.000e+00
