transmittance,probability_density
7.340e-01,0.000e+00
7.354e-01,0.000e+00
7.367e-01,0.000e+00
7.380e-01,0.000e+00
7.394e-01,0.000e+00
7.407e-01,0.000e+00
7.420e-01,0.000e+00
7.434e-01,0.000e+00
7.447e-01,0.000e+00
7.460e-01,0.000e+00
7.474e-01,0.000e+00
7.487e-01,0.000e+00
7.500e-01,0.000e+00
7.514e-01,0.000e+00
7.527e-01,0.000e+00
7.540e-01,0.000e+00
7.554e-01,0.000e+00
7.567e-01,0.000e+00
7.580e-01,0.000e+00
7.594e-01,0.000e+00
7.607e-01,0.000e+00
7.620e-01,0.000e+00
7.634e-01,0.000e+00
7.647e-01,0.000e+00
7.660e-01,0.000e+00
7.674e-01,0.000e+00
7.687e-01,0.000e+00
7.700e-01,0.000e+00
7.714e-01,0.000e+00
7.727e-01,0.000e+00
7.740e-01,0.000e+00
7.754e-01,0.000e+00
7.767e-01,0.000e+00
7.780e-01,0.000e+00
7.794e-01,0.000e+00
7.807e-01,0.000e+00
7.820e-01,0.000e+00
7.834e-01,0.000e+00
7.847e-01,0.000e+00
7.860e-01,0.000e+00
7.874e-01,0.000e+00
7.887e-01,0.000e+00
7.900e-01,0.000e+00
7.914e-01,0.000e+00
7.927e-01,0.000e+00
7.940e-01,0.000e+00
7.954e-01,0.000e+00
7.967e-01,0.000e+00
7.980e-01,0.000e+00
7.994e-01,0.000e+00
8.007e-01,0.000e+00
8.020e-01,0.000e+00
8.034e-01,0.000e+00
8.047e-01,0.000e+00
8.060e-01,0.000e+00
8.074e-01,3.657e-03
8.087e-01,0.000e+00
8.100e-01,0.000e+00
8.114e-01,0.000e+00
8.127e-01,0.000e+00
8.140e-01,0.000e+00
8.154e-01,0.000e+00
8.167e-01,3.657e-03
8.180e-01,0.000e+00
8.194e-01,0.000e+00
8.207e-01,0.000e+00
8.220e-01,0.000e+00
8.234e-01,0.000e+00
8.247e-01,0.000e+00
8.260e-01,0.000e+00
8.274e-01,0.000e+00
8.287e-01,0.000e+00
8.300e-01,0.000e+00
8.314e-01,0.000e+00
8.327e-01,0.000e+00
8.340e-01,0.000e+00
8.354e-01,0.000e+00
8.367e-01,0.000e+00
8.380e-01,0.000e+00
8.394e-01,0.000e+00
8.407e-01,0.000e+00
8.420e-01,0.000e+00
8.434e-01,0.000e+00
8.447e-01,0.000e+00
8.460e-01,0.000e+00
8.474e-01,0.000e+00
8.487e-01,0.000e+00
8.500e-01,0.000e+00
8.514e-01,0.000e+00
8.527e-01,0.000e+00
8.540e-01,0.000e+00
8.553e-01,0.000e+00
8.567e-01,0.000e+00
8.580e-01,0.000e+00
8.593e-01,3.657e-03
8.607e-01,0.000e+00
8.620e-01,0.000e+00
8.633e-01,7.315e-03
8.647e-01,3.657e-03
8.660e-01,3.657e-03
8.673e-01,0.000e+00
8.687e-01,0.000e+00
8.700e-01,0.000e+00
8.713e-01,7.315e-03
8.727e-01,3.657e-03
8.740e-01,0.000e+00
8.753e-01,7.315e-03
8.767e-01,7.315e-03
8.780e-01,3.657e-03
8.793e-01,7.315e-03
8.807e-01,1.097e-02
8.820e-01,1.097e-02
8.833e-01,1.097e-02
8.847e-01,3.657e-03
8.860e-01,2.194e-02
8.873e-01,2.194e-02
8.887e-01,2.560e-02
8.900e-01,2.560e-02
8.913e-01,1.463e-02
8.927e-01,2.560e-02
8.940e-01,2.194e-02
8.953e-01,3.657e-02
8.967e-01,4.389e-02
8.980e-01,4.023e-02
8.993e-01,6.949e-02
9.007e-01,6.218e-02
9.020e-01,7.680e-02
9.033e-01,9.143e-02
9.047e-01,1.061e-01
9.060e-01,1.609e-01
9.073e-01,1.244e-01
9.087e-01,2.085e-01
9.100e-01,2.158e-01
9.113e-01,3.511e-01
9.127e-01,3.731e-01
9.140e-01,4.864e-01
9.153e-01,6.437e-01
9.167e-01,7.315e-01
9.180e-01,9.911e-01
9.193e-01,1.372e+00
9.207e-01,1.547e+00
9.220e-01,1.840e+00
9.233e-01,2.578e+00
9.247e-01,2.999e+00
9.260e-01,3.859e+00
9.273e-01,5.351e+00
9.287e-01,6.371e+00
9.300e-01,8.021e+00
9.313e-01,1.090e+01
9.327e-01,1.254e+01
9.340e-01,1.548e+01
9.353e-01,2.039e+01
9.367e-01,2.352e+01
9.380e-01,2.778e+01
9.393e-01,3.575e+01
9.407e-01,3.882e+01
9.420e-01,4.391e+01
9.433e-01,5.258e+01
9.447e-01,5.297e+01
9.460e-01,5.564e+01
9.473e-01,6.104e+01
9.487e-01,5.481e+01
9.500e-01,5.113e+01
9.513e-01,4.765e+01
9.527e-01,3.574e+01
9.540e-01,2.740e+01
9.553e-01,2.007e+01
9.567e-01,1.134e+01
9.580e-01,6.408e+00
9.593e-01,3.277e+00
9.607e-01,1.317e+00
9.620e-01,4.279e-01
9.633e-01,1.390e-01
9.647e-01,2.194e-02
9.660e-01,3.657e-03
9.673e-01,0.000e+00
9.687e-01,0.000e+00
9.700e-01,0.000e+00
9.713e-01,0.000e+00
9.727e-01,0.000e+00
9.740e-01,0.000e+00
9.753e-01,0.000e+00
9.767e-01,0.000e+00
9.780e-01,0.000e+00
9.793e-01,0.000e+00
9.807e-01,0.000e+00
9.820e-01,0.000e+00
9.833e-01,0.000e+00
9.847e-01,0.000e+00
9.860e-01,0.000e+00
9.873e-01,0.000e+00
9.887e-01,0.000e+00
9.900e-01,0.000e+00
9.913e-01,0.000e+00
9.927e-01,0.000e+00
9.940e-01,0.000e+00
9.953e-01,0.000e+00
9.967e-01,0.000e+00
9.980e-01,0.000e+00
9.993e-01,0.000e+00
