transmittance,probability_density
1.495e-03,1.273e-01
4.486e-03,4.478e-01
7.477e-03,8.036e-01
1.047e-02,1.181e+00
1.346e-02,1.575e+00
1.645e-02,1.982e+00
1.944e-02,2.399e+00
2.243e-02,2.826e+00
2.542e-02,3.262e+00
2.841e-02,3.705e+00
3.140e-02,4.155e+00
3.440e-02,4.611e+00
3.739e-02,5.073e+00
4.038e-02,5.540e+00
4.337e-02,6.012e+00
4.636e-02,6.489e+00
4.935e-02,6.971e+00
5.234e-02,7.457e+00
5.533e-02,7.946e+00
5.832e-02,8.440e+00
6.131e-02,8.938e+00
6.430e-02,9.439e+00
6.730e-02,9.943e+00
7.029e-02,1.045e+01
7.328e-02,1.096e+01
7.627e-02,1.148e+01
7.926e-02,1.199e+01
8.225e-02,1.251e+01
8.524e-02,1.303e+01
8.823e-02,1.356e+01
9.122e-02,1.409e+01
9.421e-02,1.462e+01
9.720e-02,1.515e+01
1.002e-01,1.569e+01
1.032e-01,1.622e+01
1.062e-01,1.676e+01
1.092e-01,1.731e+01
1.122e-01,1.785e+01
1.151e-01,1.840e+01
1.181e-01,0.000e+00
1.211e-01,0.000e+00
1.241e-01,0.000e+00
1.271e-01,0.000e+00
1.301e-01,0.000e+00
1.331e-01,0.000e+00
1.361e-01,0.000e+00
1.391e-01,0.000e+00
1.421e-01,0.000e+00
1.451e-01,0.000e+00
1.480e-01,0.000e+00
1.510e-01,0.000e+00
1.540e-01,0.000e+00
1.570e-01,0.000e+00
1.600e-01,0.000e+00
1.630e-01,0.000e+00
1.660e-01,0.000e+00
1.690e-01,0.000e+00
1.720e-01,0.000e+00
1.750e-01,0.000e+00
1.780e-01,0.000e+00
1.809e-01,0.000e+00
1.839e-01,0.000e+00
1.869e-01,0.000e+00
1.899e-01,0.000e+00
1.929e-01,0.000e+00
1.959e-01,0.000e+00
1.989e-01,0.000e+00
2.019e-01,0.000e+00
2.049e-01,0.000e+00
2.079e-01,0.000e+00
2.109e-01,0.000e+00
2.138e-01,0.000e+00
2.168e-01,0.000e+00
2.198e-01,0.000e+00
2.228e-01,0.000e+00
2.258e-01,0.000e+00
2.288e-01,0.000e+00
2.318e-01,0.000e+00
2.348e-01,0.000e+00
2.378e-01,0.000e+00
2.408e-01,0.000e+00
2.438e-01,0.000e+00
2.467e-01,0.000e+00
2.497e-01,0.000e+00
2.527e-01,0.000e+00
2.557e-01,0.000e+00
2.587e-01,0.000e+00
2.617e-01,0.000e+00
2.647e-01,0.000e+00
2.677e-01,0.000e+00
2.707e-01,0.000e+00
2.737e-01,0.000e+00
2.767e-01,0.000e+00
2.796e-01,0.000e+00
2.826e-01,0.000e+00
2.856e-01,0.000e+00
2.886e-01,0.000e+00
2.916e-01,0.000e+00
2.946e-01,0.000e+00
2.976e-01,0.000e+00
3.006e-01,0.000e+00
3.036e-01,0.000e+00
3.066e-01,0.000e+00
3.096e-01,0.000e+00
3.125e-01,0.000e+00
3.155e-01,0.000e+00
3.185e-01,0.000e+00
3.215e-01,0.000e+00
3.245e-01,0.000e+00
3.275e-01,0.000e+00
3.305e-01,0.000e+00
3.335e-01,0.000e+00
3.365e-01,0.000e+00
3.395e-01,0.000e+00
3.425e-01,0.000e+00
3.454e-01,0.000e+00
3.484e-01,0.000e+00
3.514e-01,0.000e+00
3.544e-01,0.000e+00
3.574e-01,0.000e+00
3.604e-01,0.000e+00
3.634e-01,0.000e+00
3.664e-01,0.000e+00
3.694e-01,0.000e+00
3.724e-01,0.000e+00
3.754e-01,0.000e+00
3.783e-01,0.000e+00
3.813e-01,0.000e+00
3.843e-01,0.000e+00
3.873e-01,0.000e+00
3.903e-01,0.000e+00
3.933e-01,0.000e+00
3.963e-01,0.000e+00
3.993e-01,0.000e+00
4.023e-01,0.000e+00
4.053e-01,0.000e+00
4.083e-01,0.000e+00
4.112e-01,0.000e+00
4.142e-01,0.000e+00
4.172e-01,0.000e+00
4.202e-01,0.000e+00
4.232e-01,0.000e+00
4.262e-01,0.000e+00
4.292e-01,0.000e+00
4.322e-01,0.000e+00
4.352e-01,0.000e+00
4.382e-01,0.000e+00
4.412e-01,0.000e+00
4.441e-01,0.000e+00
4.471e-01,0.000e+00
4.501e-01,0.000e+00
4.531e-01,0.000e+00
4.561e-01,0.000e+00
4.591e-01,0.000e+00
4.621e-01,0.000e+00
4.651e-01,0.000e+00
4.681e-01,0.000e+00
4.711e-01,0.000e+00
4.741e-01,0.000e+00
4.770e-01,0.000e+00
4.800e-01,0.000e+00
4.830e-01,0.000e+00
4.860e-01,0.000e+00
4.890e-01,0.000e+00
4.920e-01,0.000e+00
4.950e-01,0.000e+00
4.980e-01,0.000e+00
5.010e-01,0.000e+00
5.040e-01,0.000e+00
5.070e-01,0.000e+00
5.099e-01,0.000e+00
5.129e-01,0.000e+00
5.159e-01,0.000e+00
5.189e-01,0.000e+00
5.219e-01,0.000e+00
5.249e-01,0.000e+00
5.279e-01,0.000e+00
5.309e-01,0.000e+00
5.339e-01,0.000e+00
5.369e-01,0.000e+00
5.399e-01,0.000e+00
5.428e-01,0.000e+00
5.458e-01,0.000e+00
5.488e-01,0.000e+00
5.518e-01,0.000e+00
5.548e-01,0.000e+00
5.578e-01,0.000e+00
5.608e-01,0.000e+00
5.638e-01,0.000e+00
5.668e-01,0.000e+00
5.698e-01,0.000e+00
5.728e-01,0.000e+00
5.757e-01,0.000e+00
5.787e-01,0.000e+00
5.817e-01,0.000e+00
5.847e-01,0.000e+00
5.877e-01,0.000e+00
5.907e-01,0.000e+00
5.937e-01,0.000e+00
5.967e-01,0.000e+00
