transmittance,probability_density
2.862e-01,0.000e+00
2.898e-01,0.000e+00
2.934e-01,0.000e+00
2.970e-01,0.000e+00
3.006e-01,0.000e+00
3.041e-01,0.000e+00
3.077e-01,0.000e+00
3.113e-01,0.000e+00
3.149e-01,0.000e+00
3.184e-01,0.000e+00
3.220e-01,0.000e+00
3.256e-01,0.000e+00
3.292e-01,0.000e+00
3.328e-01,0.000e+00
3.363e-01,0.000e+00
3.399e-01,0.000e+00
3.435e-01,0.000e+00
3.471e-01,0.000e+00
3.506e-01,0.000e+00
3.542e-01,0.000e+00
3.578e-01,0.000e+00
3.614e-01,0.000e+00
3.650e-01,0.000e+00
3.685e-01,0.000e+00
3.721e-01,0.000e+00
3.757e-01,0.000e+00
3.793e-01,0.000e+00
3.828e-01,0.000e+00
3.864e-01,0.000e+00
3.900e-01,0.000e+00
3.936e-01,0.000e+00
3.972e-01,0.000e+00
4.007e-01,0.000e+00
4.043e-01,0.000e+00
4.079e-01,0.000e+00
4.115e-01,0.000e+00
4.150e-01,0.000e+00
4.186e-01,0.000e+00
4.222e-01,0.000e+00
4.258e-01,0.000e+00
4.294e-01,0.000e+00
4.329e-01,0.000e+00
4.365e-01,0.000e+00
4.401e-01,0.000e+00
4.437e-01,0.000e+00
4.472e-01,0.000e+00
4.508e-01,3.211e-321
4.544e-01,2.174e-314
4.580e-01,1.101e-307
4.616e-01,4.198e-301
4.651e-01,1.211e-294
4.687e-01,2.660e-288
4.723e-01,4.469e-282
4.759e-01,5.774e-276
4.794e-01,5.768e-270
4.830e-01,4.475e-264
4.866e-01,2.711e-258
4.902e-01,1.288e-252
4.938e-01,4.820e-247
4.973e-01,1.428e-241
5.009e-01,3.363e-236
5.045e-01,6.322e-231
5.081e-01,9.526e-226
5.116e-01,1.155e-220
5.152e-01,1.132e-215
5.188e-01,9.002e-211
5.224e-01,5.827e-206
5.260e-01,3.082e-201
5.295e-01,1.337e-196
5.331e-01,4.776e-192
5.367e-01,1.408e-187
5.403e-01,3.442e-183
5.438e-01,6.993e-179
5.474e-01,1.185e-174
5.510e-01,1.680e-170
5.546e-01,1.998e-166
5.582e-01,2.001e-162
5.617e-01,1.691e-158
5.653e-01,1.210e-154
5.689e-01,7.349e-151
5.725e-01,3.800e-147
5.760e-01,1.677e-143
5.796e-01,6.332e-140
5.832e-01,2.052e-136
5.868e-01,5.717e-133
5.904e-01,1.373e-129
5.939e-01,2.852e-126
5.975e-01,5.129e-123
6.011e-01,8.011e-120
6.047e-01,1.089e-116
6.082e-01,1.290e-113
6.118e-01,1.337e-110
6.154e-01,1.213e-107
6.190e-01,9.660e-105
6.225e-01,6.765e-102
6.261e-01,4.175e-99
6.297e-01,2.275e-96
6.333e-01,1.097e-93
6.369e-01,4.686e-91
6.404e-01,1.778e-88
6.440e-01,5.998e-86
6.476e-01,1.803e-83
6.512e-01,4.839e-81
6.547e-01,1.161e-78
6.583e-01,2.495e-76
6.619e-01,4.810e-74
6.655e-01,8.332e-72
6.691e-01,1.299e-69
6.726e-01,1.825e-67
6.762e-01,2.314e-65
6.798e-01,2.652e-63
6.834e-01,2.753e-61
6.869e-01,2.590e-59
6.905e-01,2.212e-57
6.941e-01,1.718e-55
6.977e-01,1.215e-53
7.013e-01,7.827e-52
7.048e-01,4.604e-50
7.084e-01,2.475e-48
7.120e-01,1.217e-46
7.156e-01,5.487e-45
7.191e-01,2.268e-43
7.227e-01,8.612e-42
7.263e-01,3.007e-40
7.299e-01,9.662e-39
7.335e-01,2.861e-37
7.370e-01,7.818e-36
7.406e-01,1.973e-34
7.442e-01,4.603e-33
7.478e-01,9.940e-32
7.513e-01,1.989e-30
7.549e-01,3.691e-29
7.585e-01,6.358e-28
7.621e-01,1.018e-26
7.657e-01,1.516e-25
7.692e-01,2.102e-24
7.728e-01,2.716e-23
7.764e-01,3.274e-22
7.800e-01,3.685e-21
7.835e-01,3.876e-20
7.871e-01,3.812e-19
7.907e-01,3.511e-18
7.943e-01,3.029e-17
7.979e-01,2.450e-16
8.014e-01,1.860e-15
8.050e-01,1.326e-14
8.086e-01,8.889e-14
8.122e-01,5.604e-13
8.157e-01,3.326e-12
8.193e-01,1.860e-11
8.229e-01,9.807e-11
8.265e-01,4.878e-10
8.301e-01,2.291e-09
8.336e-01,1.017e-08
8.372e-01,4.267e-08
8.408e-01,1.694e-07
8.444e-01,6.369e-07
8.479e-01,2.268e-06
8.515e-01,7.660e-06
8.551e-01,2.454e-05
8.587e-01,7.463e-05
8.623e-01,2.156e-04
8.658e-01,5.920e-04
8.694e-01,1.546e-03
8.730e-01,3.842e-03
8.766e-01,9.092e-03
8.801e-01,2.050e-02
8.837e-01,4.406e-02
8.873e-01,9.033e-02
8.909e-01,1.767e-01
8.945e-01,3.302e-01
8.980e-01,5.894e-01
9.016e-01,1.006e+00
9.052e-01,1.642e+00
9.088e-01,2.564e+00
9.123e-01,3.833e+00
9.159e-01,5.490e+00
9.195e-01,7.537e+00
9.231e-01,9.919e+00
9.267e-01,1.252e+01
9.302e-01,1.518e+01
9.338e-01,1.766e+01
9.374e-01,1.974e+01
9.410e-01,2.121e+01
9.445e-01,2.191e+01
9.481e-01,2.177e+01
9.517e-01,2.082e+01
9.553e-01,1.917e+01
9.589e-01,1.700e+01
9.624e-01,1.453e+01
9.660e-01,1.197e+01
9.696e-01,9.511e+00
9.732e-01,7.290e+00
9.767e-01,5.394e+00
9.803e-01,3.853e+00
9.839e-01,2.659e+00
9.875e-01,1.773e+00
9.911e-01,1.142e+00
9.946e-01,7.120e-01
9.982e-01,4.293e-01
