transmittance,probability_density
1.300e-01,
1.344e-01,
1.387e-01,
1.431e-01,
1.474e-01,
1.518e-01,
1.562e-01,
1.605e-01,
1.649e-01,
1.692e-01,
1.736e-01,
1.780e-01,
1.823e-01,
1.867e-01,
1.911e-01,
1.954e-01,
1.998e-01,
2.041e-01,
2.085e-01,
2.129e-01,
2.172e-01,
2.216e-01,
2.259e-01,
2.303e-01,
2.347e-01,
2.390e-01,
2.434e-01,
2.477e-01,
2.521e-01,
2.565e-01,
2.608e-01,
2.652e-01,
2.695e-01,
2.739e-01,
2.783e-01,
2.826e-01,
2.870e-01,
2.914e-01,
2.957e-01,
3.001e-01,
3.044e-01,
3.088e-01,
3.132e-01,
3.175e-01,
3.219e-01,
3.262e-01,
3.306e-01,
3.350e-01,
3.393e-01,
3.437e-01,
3.480e-01,
3.524e-01,
3.568e-01,
3.611e-01,
3.655e-01,
3.698e-01,
3.742e-01,
3.786e-01,
3.829e-01,
3.873e-01,
3.917e-01,
3.960e-01,
4.004e-01,
4.047e-01,
4.091e-01,
4.135e-01,
4.178e-01,
4.222e-01,
4.265e-01,
4.309e-01,
4.353e-01,
4.396e-01,
4.440e-01,
4.483e-01,
4.527e-01,
4.571e-01,
4.614e-01,
4.658e-01,
4.701e-01,
4.745e-01,
4.789e-01,
4.832e-01,
4.876e-01,
4.920e-01,
4.963e-01,
5.007e-01,
5.050e-01,
5.094e-01,
5.138e-01,
5.181e-01,
5.225e-01,
5.268e-01,
5.312e-01,
5.356e-01,
5.399e-01,
5.443e-01,
5.486e-01,
5.530e-01,
5.574e-01,
5.617e-01,
5.661e-01,
5.705e-01,
5.748e-01,
5.792e-01,
5.835e-01,
5.879e-01,
5.923e-01,
5.966e-01,
6.010e-01,
6.053e-01,
6.097e-01,
6.141e-01,
6.184e-01,
6.228e-01,
6.271e-01,
6.315e-01,
6.359e-01,
6.402e-01,
6.446e-01,
6.489e-01,
6.533e-01,
6.577e-01,
6.620e-01,
6.664e-01,
6.708e-01,
6.751e-01,
6.795e-01,
6.838e-01,
6.882e-01,
6.926e-01,
6.969e-01,
7.013e-01,
7.056e-01,
7.100e-01,
7.144e-01,
7.187e-01,
7.231e-01,
7.274e-01,
7.318e-01,
7.362e-01,
7.405e-01,
7.449e-01,
7.492e-01,
7.536e-01,
7.580e-01,
7.623e-01,
7.667e-01,
7.711e-01,
7.754e-01,
7.798e-01,
7.841e-01,
7.885e-01,
7.929e-01,
7.972e-01,
8.016e-01,
8.059e-01,
8.103e-01,
8.147e-01,
8.190e-01,
8.234e-01,
8.277e-01,
8.321e-01,
8.365e-01,
8.408e-01,
8.452e-01,
8.495e-01,
8.539e-01,
8.583e-01,
8.626e-01,
8.670e-01,
8.714e-01,
8.757e-01,
8.801e-01,
8.844e-01,
8.888e-01,
8.932e-01,
8.975e-01,
9.019e-01,
9.062e-01,
9.106e-01,
9.150e-01,
9.193e-01,
9.237e-01,
9.280e-01,
9.324e-01,
9.368e-01,
9.411e-01,
9.455e-01,
9.498e-01,
9.542e-01,
9.586e-01,
9.629e-01,
9.673e-01,
9.717e-01,
9.760e-01,
9.804e-01,
9.847e-01,
9.891e-01,
9.935e-01,
9.978e-01,
