transmittance,probability_density
2.912e-04,5.502e+01
8.737e-04,6.025e+01
1.456e-03,6.318e+01
2.039e-03,6.490e+01
2.621e-03,6.576e+01
3.203e-03,6.596e+01
3.786e-03,6.558e+01
4.368e-03,6.474e+01
4.951e-03,6.351e+01
5.533e-03,6.195e+01
6.116e-03,6.015e+01
6.698e-03,5.814e+01
7.281e-03,5.599e+01
7.863e-03,5.374e+01
8.446e-03,5.142e+01
9.028e-03,4.907e+01
9.610e-03,4.671e+01
1.019e-02,4.437e+01
1.078e-02,4.206e+01
1.136e-02,3.980e+01
1.194e-02,3.761e+01
1.252e-02,3.548e+01
1.311e-02,3.343e+01
1.369e-02,3.146e+01
1.427e-02,2.958e+01
1.485e-02,2.778e+01
1.543e-02,2.607e+01
1.602e-02,2.444e+01
1.660e-02,2.290e+01
1.718e-02,2.144e+01
1.776e-02,2.006e+01
1.835e-02,1.876e+01
1.893e-02,1.754e+01
1.951e-02,1.639e+01
2.009e-02,1.530e+01
2.068e-02,1.428e+01
2.126e-02,1.333e+01
2.184e-02,1.243e+01
2.242e-02,1.159e+01
2.301e-02,1.081e+01
2.359e-02,1.007e+01
2.417e-02,9.385e+00
2.475e-02,8.742e+00
2.534e-02,8.142e+00
2.592e-02,7.581e+00
2.650e-02,7.057e+00
2.708e-02,6.569e+00
2.767e-02,6.113e+00
2.825e-02,5.688e+00
2.883e-02,5.291e+00
2.941e-02,4.922e+00
3.000e-02,4.578e+00
3.058e-02,4.257e+00
3.116e-02,3.958e+00
3.174e-02,3.680e+00
3.233e-02,3.421e+00
3.291e-02,3.180e+00
3.349e-02,2.955e+00
3.407e-02,2.746e+00
3.466e-02,2.552e+00
3.524e-02,2.371e+00
3.582e-02,2.203e+00
3.640e-02,2.046e+00
3.699e-02,1.900e+00
3.757e-02,1.765e+00
3.815e-02,1.639e+00
3.873e-02,1.522e+00
3.932e-02,1.413e+00
3.990e-02,1.312e+00
4.048e-02,1.218e+00
4.106e-02,1.131e+00
4.165e-02,1.050e+00
4.223e-02,9.745e-01
4.281e-02,9.044e-01
4.339e-02,8.394e-01
4.397e-02,7.789e-01
4.456e-02,7.227e-01
4.514e-02,6.706e-01
4.572e-02,6.222e-01
4.630e-02,5.772e-01
4.689e-02,5.354e-01
4.747e-02,4.966e-01
4.805e-02,4.606e-01
4.863e-02,4.272e-01
4.922e-02,3.962e-01
4.980e-02,3.674e-01
5.038e-02,3.407e-01
5.096e-02,3.159e-01
5.155e-02,2.929e-01
5.213e-02,2.715e-01
5.271e-02,2.517e-01
5.329e-02,2.333e-01
5.388e-02,2.162e-01
5.446e-02,2.004e-01
5.504e-02,1.857e-01
5.562e-02,1.721e-01
5.621e-02,1.595e-01
5.679e-02,1.478e-01
5.737e-02,1.369e-01
5.795e-02,1.268e-01
5.854e-02,1.175e-01
5.912e-02,1.088e-01
5.970e-02,1.008e-01
6.028e-02,9.337e-02
6.087e-02,8.648e-02
6.145e-02,8.008e-02
6.203e-02,7.416e-02
6.261e-02,6.867e-02
6.320e-02,6.358e-02
6.378e-02,5.886e-02
6.436e-02,5.449e-02
6.494e-02,5.044e-02
6.553e-02,4.669e-02
6.611e-02,4.322e-02
6.669e-02,4.000e-02
6.727e-02,3.701e-02
6.786e-02,3.425e-02
6.844e-02,3.169e-02
6.902e-02,2.933e-02
6.960e-02,2.713e-02
7.019e-02,2.510e-02
7.077e-02,2.322e-02
7.135e-02,2.148e-02
7.193e-02,1.987e-02
7.252e-02,1.838e-02
7.310e-02,1.700e-02
7.368e-02,1.572e-02
7.426e-02,1.453e-02
7.484e-02,1.344e-02
7.543e-02,1.243e-02
7.601e-02,1.149e-02
7.659e-02,1.062e-02
7.717e-02,9.817e-03
7.776e-02,9.075e-03
7.834e-02,8.388e-03
7.892e-02,7.752e-03
7.950e-02,7.164e-03
8.009e-02,6.621e-03
8.067e-02,6.118e-03
8.125e-02,5.653e-03
8.183e-02,5.223e-03
8.242e-02,4.825e-03
8.300e-02,4.458e-03
8.358e-02,4.118e-03
8.416e-02,3.804e-03
8.475e-02,3.513e-03
8.533e-02,3.245e-03
8.591e-02,2.997e-03
8.649e-02,2.767e-03
8.708e-02,2.555e-03
8.766e-02,2.359e-03
8.824e-02,2.178e-03
8.882e-02,2.011e-03
8.941e-02,1.857e-03
8.999e-02,1.714e-03
9.057e-02,1.582e-03
9.115e-02,1.460e-03
9.174e-02,1.348e-03
9.232e-02,1.244e-03
9.290e-02,1.148e-03
9.348e-02,1.059e-03
9.407e-02,9.771e-04
9.465e-02,9.015e-04
9.523e-02,8.317e-04
9.581e-02,7.672e-04
9.640e-02,7.077e-04
9.698e-02,6.528e-04
9.756e-02,6.021e-04
9.814e-02,5.553e-04
9.873e-02,5.121e-04
9.931e-02,4.723e-04
9.989e-02,4.355e-04
1.005e-01,4.015e-04
1.011e-01,3.702e-04
1.016e-01,3.413e-04
1.022e-01,3.147e-04
1.028e-01,2.900e-04
1.034e-01,2.674e-04
1.040e-01,2.464e-04
1.045e-01,2.271e-04
1.051e-01,2.093e-04
1.057e-01,1.929e-04
1.063e-01,1.777e-04
1.069e-01,1.638e-04
1.075e-01,1.509e-04
1.080e-01,1.390e-04
1.086e-01,1.281e-04
1.092e-01,1.180e-04
1.098e-01,1.087e-04
1.104e-01,1.001e-04
1.110e-01,9.218e-05
1.115e-01,8.489e-05
1.121e-01,7.818e-05
1.127e-01,7.199e-05
1.133e-01,6.629e-05
1.139e-01,6.103e-05
1.145e-01,5.619e-05
1.150e-01,5.173e-05
1.156e-01,4.762e-05
1.162e-01,4.383e-05
