transmittance,probability_density
3.115e-01,
3.150e-01,
3.184e-01,
3.219e-01,
3.253e-01,
3.288e-01,
3.322e-01,
3.357e-01,
3.392e-01,
3.426e-01,
3.461e-01,
3.495e-01,
3.530e-01,
3.564e-01,
3.599e-01,
3.633e-01,
3.668e-01,
3.702e-01,
3.737e-01,
3.771e-01,
3.806e-01,
3.840e-01,
3.875e-01,
3.909e-01,
3.944e-01,
3.978e-01,
4.013e-01,
4.047e-01,
4.082e-01,
4.116e-01,
4.151e-01,
4.185e-01,
4.220e-01,
4.254e-01,
4.289e-01,
4.323e-01,
4.358e-01,
4.392e-01,
4.427e-01,
4.461e-01,
4.496e-01,
4.530e-01,
4.565e-01,
4.599e-01,
4.634e-01,
4.668e-01,
4.703e-01,
4.737e-01,
4.772e-01,
4.806e-01,
4.841e-01,
4.875e-01,
4.910e-01,
4.944e-01,
4.979e-01,
5.013e-01,
5.048e-01,
5.082e-01,
5.117e-01,
5.151e-01,
5.186e-01,
5.220e-01,
5.255e-01,
5.290e-01,
5.324e-01,
5.359e-01,
5.393e-01,
5.428e-01,
5.462e-01,
5.497e-01,
5.531e-01,
5.566e-01,
5.600e-01,
5.635e-01,
5.669e-01,
5.704e-01,
5.738e-01,
5.773e-01,
5.807e-01,
5.842e-01,
5.876e-01,
5.911e-01,
5.945e-01,
5.980e-01,
6.014e-01,
6.049e-01,
6.083e-01,
6.118e-01,
6.152e-01,
6.187e-01,
6.221e-01,
6.256e-01,
6.290e-01,
6.325e-01,
6.359e-01,
6.394e-01,
6.428e-01,
6.463e-01,
6.497e-01,
6.532e-01,
6.566e-01,
6.601e-01,
6.635e-01,
6.670e-01,
6.704e-01,
6.739e-01,
6.773e-01,
6.808e-01,
6.842e-01,
6.877e-01,
6.911e-01,
6.946e-01,
6.980e-01,
7.015e-01,
7.049e-01,
7.084e-01,
7.118e-01,
7.153e-01,
7.188e-01,
7.222e-01,
7.257e-01,
7.291e-01,
7.326e-01,
7.360e-01,
7.395e-01,
7.429e-01,
7.464e-01,
7.498e-01,
7.533e-01,
7.567e-01,
7.602e-01,
7.636e-01,
7.671e-01,
7.705e-01,
7.740e-01,
7.774e-01,
7.809e-01,
7.843e-01,
7.878e-01,
7.912e-01,
7.947e-01,
7.981e-01,
8.016e-01,
8.050e-01,
8.085e-01,
8.119e-01,
8.154e-01,
8.188e-01,
8.223e-01,
8.257e-01,
8.292e-01,
8.326e-01,
8.361e-01,
8.395e-01,
8.430e-01,
8.464e-01,
8.499e-01,
8.533e-01,
8.568e-01,
8.602e-01,
8.637e-01,
8.671e-01,
8.706e-01,
8.740e-01,
8.775e-01,
8.809e-01,
8.844e-01,
8.878e-01,
8.913e-01,
8.947e-01,
8.982e-01,
9.016e-01,
9.051e-01,
9.086e-01,
9.120e-01,
9.155e-01,
9.189e-01,
9.224e-01,
9.258e-01,
9.293e-01,
9.327e-01,
9.362e-01,
9.396e-01,
9.431e-01,
9.465e-01,
9.500e-01,
9.534e-01,
9.569e-01,
9.603e-01,
9.638e-01,
9.672e-01,
9.707e-01,
9.741e-01,
9.776e-01,
9.810e-01,
9.845e-01,
9.879e-01,
9.914e-01,
9.948e-01,
9.983e-01,
