transmittance,probability_density
1.212e-03,0.000e+00
3.636e-03,1.073e-01
6.060e-03,6.065e-01
8.483e-03,1.176e+00
1.091e-02,2.434e+00
1.333e-02,3.280e+00
1.576e-02,4.320e+00
1.818e-02,5.231e+00
2.060e-02,5.772e+00
2.303e-02,6.209e+00
2.545e-02,7.133e+00
2.787e-02,7.290e+00
3.030e-02,7.241e+00
3.272e-02,7.525e+00
3.515e-02,8.404e+00
3.757e-02,7.963e+00
3.999e-02,8.053e+00
4.242e-02,7.839e+00
4.484e-02,8.416e+00
4.727e-02,8.177e+00
4.969e-02,8.313e+00
5.211e-02,8.033e+00
5.454e-02,8.123e+00
5.696e-02,8.169e+00
5.938e-02,7.748e+00
6.181e-02,8.107e+00
6.423e-02,7.661e+00
6.666e-02,7.554e+00
6.908e-02,7.500e+00
7.150e-02,6.803e+00
7.393e-02,7.203e+00
7.635e-02,7.368e+00
7.878e-02,7.043e+00
8.120e-02,6.609e+00
8.362e-02,6.477e+00
8.605e-02,6.399e+00
8.847e-02,6.122e+00
9.089e-02,6.003e+00
9.332e-02,5.772e+00
9.574e-02,5.867e+00
9.817e-02,5.533e+00
1.006e-01,5.665e+00
1.030e-01,5.240e+00
1.054e-01,4.831e+00
1.079e-01,4.848e+00
1.103e-01,5.058e+00
1.127e-01,5.500e+00
1.151e-01,4.914e+00
1.176e-01,4.629e+00
1.200e-01,4.501e+00
1.224e-01,4.357e+00
1.248e-01,4.221e+00
1.273e-01,4.175e+00
1.297e-01,3.804e+00
1.321e-01,3.771e+00
1.345e-01,3.705e+00
1.369e-01,3.395e+00
1.394e-01,3.540e+00
1.418e-01,3.474e+00
1.442e-01,3.160e+00
1.466e-01,3.123e+00
1.491e-01,3.061e+00
1.515e-01,2.991e+00
1.539e-01,2.826e+00
1.563e-01,2.847e+00
1.588e-01,2.636e+00
1.612e-01,2.591e+00
1.636e-01,2.678e+00
1.660e-01,2.418e+00
1.685e-01,2.261e+00
1.709e-01,2.104e+00
1.733e-01,2.063e+00
1.757e-01,2.038e+00
1.782e-01,1.943e+00
1.806e-01,2.088e+00
1.830e-01,1.803e+00
1.854e-01,1.729e+00
1.878e-01,1.782e+00
1.903e-01,1.725e+00
1.927e-01,1.506e+00
1.951e-01,1.514e+00
1.975e-01,1.254e+00
2.000e-01,1.312e+00
2.024e-01,1.539e+00
2.048e-01,1.110e+00
2.072e-01,1.275e+00
2.097e-01,1.143e+00
2.121e-01,1.110e+00
2.145e-01,1.060e+00
2.169e-01,9.860e-01
2.194e-01,8.870e-01
2.218e-01,8.705e-01
2.242e-01,8.623e-01
2.266e-01,7.096e-01
2.291e-01,7.963e-01
2.315e-01,6.189e-01
2.339e-01,6.890e-01
2.363e-01,6.312e-01
2.387e-01,5.528e-01
2.412e-01,4.951e-01
2.436e-01,5.611e-01
2.460e-01,5.363e-01
2.484e-01,4.703e-01
2.509e-01,4.786e-01
2.533e-01,4.579e-01
2.557e-01,4.745e-01
2.581e-01,3.589e-01
2.606e-01,3.177e-01
2.630e-01,3.837e-01
2.654e-01,3.754e-01
2.678e-01,2.393e-01
2.703e-01,2.682e-01
2.727e-01,1.980e-01
2.751e-01,3.012e-01
2.775e-01,2.475e-01
2.800e-01,2.517e-01
2.824e-01,1.980e-01
2.848e-01,1.485e-01
2.872e-01,1.650e-01
2.897e-01,1.650e-01
2.921e-01,1.650e-01
2.945e-01,1.568e-01
2.969e-01,1.361e-01
2.993e-01,1.031e-01
3.018e-01,1.073e-01
3.042e-01,1.155e-01
3.066e-01,1.114e-01
3.090e-01,9.076e-02
3.115e-01,8.664e-02
3.139e-01,8.664e-02
3.163e-01,6.601e-02
3.187e-01,5.776e-02
3.212e-01,6.601e-02
3.236e-01,7.014e-02
3.260e-01,7.426e-02
3.284e-01,4.538e-02
3.309e-01,4.538e-02
3.333e-01,5.776e-02
3.357e-01,4.538e-02
3.381e-01,1.650e-02
3.406e-01,2.063e-02
3.430e-01,1.650e-02
3.454e-01,3.713e-02
3.478e-01,8.251e-03
3.502e-01,2.063e-02
3.527e-01,1.650e-02
3.551e-01,2.063e-02
3.575e-01,1.238e-02
3.599e-01,2.888e-02
3.624e-01,8.251e-03
3.648e-01,1.238e-02
3.672e-01,8.251e-03
3.696e-01,4.126e-03
3.721e-01,1.238e-02
3.745e-01,0.000e+00
3.769e-01,4.126e-03
3.793e-01,0.000e+00
3.818e-01,8.251e-03
3.842e-01,0.000e+00
3.866e-01,4.126e-03
3.890e-01,8.251e-03
3.915e-01,4.126e-03
3.939e-01,4.126e-03
3.963e-01,0.000e+00
3.987e-01,4.126e-03
4.011e-01,0.000e+00
4.036e-01,0.000e+00
4.060e-01,0.000e+00
4.084e-01,0.000e+00
4.108e-01,0.000e+00
4.133e-01,0.000e+00
4.157e-01,0.000e+00
4.181e-01,0.000e+00
4.205e-01,0.000e+00
4.230e-01,0.000e+00
4.254e-01,0.000e+00
4.278e-01,0.000e+00
4.302e-01,0.000e+00
4.327e-01,0.000e+00
4.351e-01,0.000e+00
4.375e-01,0.000e+00
4.399e-01,4.126e-03
4.424e-01,0.000e+00
4.448e-01,0.000e+00
4.472e-01,0.000e+00
4.496e-01,0.000e+00
4.520e-01,0.000e+00
4.545e-01,0.000e+00
4.569e-01,0.000e+00
4.593e-01,0.000e+00
4.617e-01,0.000e+00
4.642e-01,0.000e+00
4.666e-01,0.000e+00
4.690e-01,0.000e+00
4.714e-01,0.000e+00
4.739e-01,0.000e+00
4.763e-01,0.000e+00
4.787e-01,0.000e+00
4.811e-01,0.000e+00
4.836e-01,0.000e+00
