transmittance,probability_density
7.412e-01,0.000e+00
7.425e-01,0.000e+00
7.438e-01,0.000e+00
7.451e-01,0.000e+00
7.464e-01,0.000e+00
7.477e-01,0.000e+00
7.490e-01,0.000e+00
7.503e-01,0.000e+00
7.516e-01,0.000e+00
7.529e-01,0.000e+00
7.542e-01,0.000e+00
7.555e-01,0.000e+00
7.568e-01,0.000e+00
7.581e-01,0.000e+00
7.594e-01,0.000e+00
7.607e-01,0.000e+00
7.620e-01,0.000e+00
7.632e-01,0.000e+00
7.645e-01,0.000e+00
7.658e-01,0.000e+00
7.671e-01,0.000e+00
7.684e-01,0.000e+00
7.697e-01,0.000e+00
7.710e-01,0.000e+00
7.723e-01,0.000e+00
7.736e-01,0.000e+00
7.749e-01,0.000e+00
7.762e-01,0.000e+00
7.775e-01,0.000e+00
7.788e-01,0.000e+00
7.801e-01,0.000e+00
7.814e-01,0.000e+00
7.827e-01,0.000e+00
7.840e-01,0.000e+00
7.853e-01,0.000e+00
7.866e-01,0.000e+00
7.879e-01,0.000e+00
7.892e-01,0.000e+00
7.905e-01,0.000e+00
7.918e-01,0.000e+00
7.931e-01,0.000e+00
7.944e-01,0.000e+00
7.957e-01,0.000e+00
7.970e-01,0.000e+00
7.983e-01,0.000e+00
7.996e-01,0.000e+00
8.009e-01,0.000e+00
8.022e-01,0.000e+00
8.035e-01,0.000e+00
8.048e-01,0.000e+00
8.061e-01,0.000e+00
8.074e-01,0.000e+00
8.087e-01,0.000e+00
8.099e-01,0.000e+00
8.112e-01,0.000e+00
8.125e-01,0.000e+00
8.138e-01,0.000e+00
8.151e-01,3.759e-03
8.164e-01,0.000e+00
8.177e-01,0.000e+00
8.190e-01,0.000e+00
8.203e-01,0.000e+00
8.216e-01,0.000e+00
8.229e-01,0.000e+00
8.242e-01,0.000e+00
8.255e-01,0.000e+00
8.268e-01,0.000e+00
8.281e-01,0.000e+00
8.294e-01,0.000e+00
8.307e-01,0.000e+00
8.320e-01,0.000e+00
8.333e-01,0.000e+00
8.346e-01,0.000e+00
8.359e-01,0.000e+00
8.372e-01,0.000e+00
8.385e-01,0.000e+00
8.398e-01,0.000e+00
8.411e-01,0.000e+00
8.424e-01,0.000e+00
8.437e-01,0.000e+00
8.450e-01,0.000e+00
8.463e-01,0.000e+00
8.476e-01,0.000e+00
8.489e-01,0.000e+00
8.502e-01,0.000e+00
8.515e-01,0.000e+00
8.528e-01,0.000e+00
8.541e-01,0.000e+00
8.554e-01,0.000e+00
8.567e-01,0.000e+00
8.579e-01,0.000e+00
8.592e-01,0.000e+00
8.605e-01,0.000e+00
8.618e-01,0.000e+00
8.631e-01,3.759e-03
8.644e-01,0.000e+00
8.657e-01,0.000e+00
8.670e-01,0.000e+00
8.683e-01,0.000e+00
8.696e-01,0.000e+00
8.709e-01,0.000e+00
8.722e-01,0.000e+00
8.735e-01,0.000e+00
8.748e-01,0.000e+00
8.761e-01,0.000e+00
8.774e-01,0.000e+00
8.787e-01,7.517e-03
8.800e-01,0.000e+00
8.813e-01,3.759e-03
8.826e-01,3.759e-03
8.839e-01,0.000e+00
8.852e-01,3.759e-03
8.865e-01,7.517e-03
8.878e-01,0.000e+00
8.891e-01,3.759e-03
8.904e-01,3.759e-03
8.917e-01,3.759e-03
8.930e-01,1.128e-02
8.943e-01,3.759e-03
8.956e-01,3.759e-03
8.969e-01,3.759e-03
8.982e-01,0.000e+00
8.995e-01,0.000e+00
9.008e-01,3.759e-03
9.021e-01,1.128e-02
9.034e-01,7.517e-03
9.047e-01,3.759e-03
9.059e-01,1.503e-02
9.072e-01,1.128e-02
9.085e-01,3.007e-02
9.098e-01,1.503e-02
9.111e-01,1.503e-02
9.124e-01,1.879e-02
9.137e-01,1.879e-02
9.150e-01,3.383e-02
9.163e-01,5.638e-02
9.176e-01,4.886e-02
9.189e-01,5.638e-02
9.202e-01,5.262e-02
9.215e-01,6.765e-02
9.228e-01,8.269e-02
9.241e-01,1.391e-01
9.254e-01,1.316e-01
9.267e-01,1.842e-01
9.280e-01,2.481e-01
9.293e-01,3.082e-01
9.306e-01,3.082e-01
9.319e-01,4.360e-01
9.332e-01,5.149e-01
9.345e-01,6.916e-01
9.358e-01,9.547e-01
9.371e-01,1.071e+00
9.384e-01,1.639e+00
9.397e-01,2.071e+00
9.410e-01,2.616e+00
9.423e-01,3.604e+00
9.436e-01,4.766e+00
9.449e-01,6.348e+00
9.462e-01,8.547e+00
9.475e-01,1.128e+01
9.488e-01,1.594e+01
9.501e-01,2.072e+01
9.514e-01,2.593e+01
9.526e-01,3.094e+01
9.539e-01,4.125e+01
9.552e-01,5.019e+01
9.565e-01,6.053e+01
9.578e-01,6.778e+01
9.591e-01,7.504e+01
9.604e-01,7.709e+01
9.617e-01,7.233e+01
9.630e-01,6.449e+01
9.643e-01,5.050e+01
9.656e-01,3.485e+01
9.669e-01,2.090e+01
9.682e-01,1.026e+01
9.695e-01,4.063e+00
9.708e-01,1.143e+00
9.721e-01,3.646e-01
9.734e-01,5.262e-02
9.747e-01,3.759e-03
9.760e-01,3.759e-03
9.773e-01,0.000e+00
9.786e-01,0.000e+00
9.799e-01,0.000e+00
9.812e-01,0.000e+00
9.825e-01,0.000e+00
9.838e-01,0.000e+00
9.851e-01,0.000e+00
9.864e-01,0.000e+00
9.877e-01,0.000e+00
9.890e-01,0.000e+00
9.903e-01,0.000e+00
9.916e-01,0.000e+00
9.929e-01,0.000e+00
9.942e-01,0.000e+00
9.955e-01,0.000e+00
9.968e-01,0.000e+00
9.981e-01,0.000e+00
9.994e-01,0.000e+00
