transmittance,probability_density
4.630e-01,0.000e+00
4.657e-01,0.000e+00
4.684e-01,0.000e+00
4.711e-01,0.000e+00
4.737e-01,0.000e+00
4.764e-01,0.000e+00
4.791e-01,0.000e+00
4.818e-01,0.000e+00
4.845e-01,0.000e+00
4.872e-01,0.000e+00
4.899e-01,0.000e+00
4.926e-01,0.000e+00
4.953e-01,0.000e+00
4.980e-01,0.000e+00
5.007e-01,0.000e+00
5.034e-01,0.000e+00
5.061e-01,0.000e+00
5.087e-01,3.715e-03
5.114e-01,0.000e+00
5.141e-01,0.000e+00
5.168e-01,0.000e+00
5.195e-01,0.000e+00
5.222e-01,0.000e+00
5.249e-01,0.000e+00
5.276e-01,0.000e+00
5.303e-01,0.000e+00
5.330e-01,0.000e+00
5.357e-01,0.000e+00
5.384e-01,0.000e+00
5.410e-01,0.000e+00
5.437e-01,0.000e+00
5.464e-01,0.000e+00
5.491e-01,0.000e+00
5.518e-01,0.000e+00
5.545e-01,0.000e+00
5.572e-01,0.000e+00
5.599e-01,0.000e+00
5.626e-01,0.000e+00
5.653e-01,0.000e+00
5.680e-01,0.000e+00
5.707e-01,0.000e+00
5.733e-01,0.000e+00
5.760e-01,0.000e+00
5.787e-01,0.000e+00
5.814e-01,0.000e+00
5.841e-01,0.000e+00
5.868e-01,0.000e+00
5.895e-01,0.000e+00
5.922e-01,0.000e+00
5.949e-01,0.000e+00
5.976e-01,0.000e+00
6.003e-01,0.000e+00
6.030e-01,0.000e+00
6.056e-01,0.000e+00
6.083e-01,0.000e+00
6.110e-01,0.000e+00
6.137e-01,0.000e+00
6.164e-01,0.000e+00
6.191e-01,0.000e+00
6.218e-01,0.000e+00
6.245e-01,0.000e+00
6.272e-01,0.000e+00
6.299e-01,0.000e+00
6.326e-01,0.000e+00
6.353e-01,0.000e+00
6.380e-01,0.000e+00
6.406e-01,0.000e+00
6.433e-01,0.000e+00
6.460e-01,0.000e+00
6.487e-01,0.000e+00
6.514e-01,0.000e+00
6.541e-01,0.000e+00
6.568e-01,0.000e+00
6.595e-01,0.000e+00
6.622e-01,0.000e+00
6.649e-01,0.000e+00
6.676e-01,0.000e+00
6.703e-01,0.000e+00
6.729e-01,0.000e+00
6.756e-01,0.000e+00
6.783e-01,0.000e+00
6.810e-01,0.000e+00
6.837e-01,0.000e+00
6.864e-01,0.000e+00
6.891e-01,0.000e+00
6.918e-01,0.000e+00
6.945e-01,0.000e+00
6.972e-01,0.000e+00
6.999e-01,0.000e+00
7.026e-01,0.000e+00
7.052e-01,0.000e+00
7.079e-01,0.000e+00
7.106e-01,0.000e+00
7.133e-01,0.000e+00
7.160e-01,3.715e-03
7.187e-01,3.715e-03
7.214e-01,0.000e+00
7.241e-01,0.000e+00
7.268e-01,0.000e+00
7.295e-01,0.000e+00
7.322e-01,3.715e-03
7.349e-01,3.715e-03
7.375e-01,0.000e+00
7.402e-01,3.715e-03
7.429e-01,3.715e-03
7.456e-01,3.715e-03
7.483e-01,0.000e+00
7.510e-01,7.430e-03
7.537e-01,0.000e+00
7.564e-01,3.715e-03
7.591e-01,0.000e+00
7.618e-01,1.114e-02
7.645e-01,3.715e-03
7.672e-01,0.000e+00
7.698e-01,3.715e-03
7.725e-01,3.715e-03
7.752e-01,7.430e-03
7.779e-01,1.486e-02
7.806e-01,0.000e+00
7.833e-01,1.486e-02
7.860e-01,2.972e-02
7.887e-01,2.229e-02
7.914e-01,2.229e-02
7.941e-01,2.972e-02
7.968e-01,2.600e-02
7.995e-01,7.430e-02
8.022e-01,6.315e-02
8.048e-01,7.058e-02
8.075e-01,8.173e-02
8.102e-01,6.315e-02
8.129e-01,9.659e-02
8.156e-01,1.263e-01
8.183e-01,1.337e-01
8.210e-01,1.820e-01
8.237e-01,1.635e-01
8.264e-01,2.415e-01
8.291e-01,2.823e-01
8.318e-01,3.046e-01
8.345e-01,4.086e-01
8.371e-01,4.941e-01
8.398e-01,6.501e-01
8.425e-01,8.099e-01
8.452e-01,9.547e-01
8.479e-01,1.096e+00
8.506e-01,1.330e+00
8.533e-01,1.612e+00
8.560e-01,1.958e+00
8.587e-01,2.274e+00
8.614e-01,3.017e+00
8.641e-01,3.730e+00
8.668e-01,4.621e+00
8.694e-01,5.220e+00
8.721e-01,6.390e+00
8.748e-01,8.177e+00
8.775e-01,9.748e+00
8.802e-01,1.154e+01
8.829e-01,1.368e+01
8.856e-01,1.591e+01
8.883e-01,1.868e+01
8.910e-01,2.137e+01
8.937e-01,2.342e+01
8.964e-01,2.558e+01
8.991e-01,2.708e+01
9.017e-01,2.716e+01
9.044e-01,2.742e+01
9.071e-01,2.558e+01
9.098e-01,2.251e+01
9.125e-01,1.874e+01
9.152e-01,1.486e+01
9.179e-01,1.046e+01
9.206e-01,6.393e+00
9.233e-01,3.667e+00
9.260e-01,1.820e+00
9.287e-01,6.910e-01
9.314e-01,2.898e-01
9.341e-01,3.343e-02
9.367e-01,3.715e-03
9.394e-01,0.000e+00
9.421e-01,0.000e+00
9.448e-01,0.000e+00
9.475e-01,0.000e+00
9.502e-01,0.000e+00
9.529e-01,0.000e+00
9.556e-01,0.000e+00
9.583e-01,0.000e+00
9.610e-01,0.000e+00
9.637e-01,0.000e+00
9.664e-01,0.000e+00
9.690e-01,0.000e+00
9.717e-01,0.000e+00
9.744e-01,0.000e+00
9.771e-01,0.000e+00
9.798e-01,0.000e+00
9.825e-01,0.000e+00
9.852e-01,0.000e+00
9.879e-01,0.000e+00
9.906e-01,0.000e+00
9.933e-01,0.000e+00
9.960e-01,0.000e+00
9.987e-01,0.000e+00
