transmittance,probability_density
2.507e-04,0.000e+00
7.522e-04,2.427e-02
1.254e-03,5.825e-02
1.755e-03,8.738e-02
2.257e-03,1.019e-01
2.758e-03,1.505e-01
3.260e-03,2.573e-01
3.761e-03,2.913e-01
4.263e-03,3.544e-01
4.764e-03,4.078e-01
5.266e-03,4.612e-01
5.767e-03,6.602e-01
6.269e-03,6.165e-01
6.770e-03,8.689e-01
7.272e-03,9.369e-01
7.773e-03,9.612e-01
8.275e-03,1.000e+00
8.776e-03,1.335e+00
9.278e-03,1.427e+00
9.779e-03,1.500e+00
1.028e-02,1.927e+00
1.078e-02,1.937e+00
1.128e-02,2.146e+00
1.179e-02,2.170e+00
1.229e-02,2.675e+00
1.279e-02,2.563e+00
1.329e-02,2.869e+00
1.379e-02,3.228e+00
1.429e-02,3.578e+00
1.479e-02,3.602e+00
1.530e-02,3.971e+00
1.580e-02,4.087e+00
1.630e-02,4.286e+00
1.680e-02,4.840e+00
1.730e-02,4.884e+00
1.780e-02,5.481e+00
1.830e-02,5.612e+00
1.881e-02,6.078e+00
1.931e-02,6.204e+00
1.981e-02,6.806e+00
2.031e-02,6.990e+00
2.081e-02,7.136e+00
2.131e-02,7.199e+00
2.181e-02,8.107e+00
2.232e-02,8.534e+00
2.282e-02,9.092e+00
2.332e-02,9.510e+00
2.382e-02,9.942e+00
2.432e-02,1.057e+01
2.482e-02,1.072e+01
2.533e-02,1.178e+01
2.583e-02,1.218e+01
2.633e-02,1.214e+01
2.683e-02,1.280e+01
2.733e-02,1.288e+01
2.783e-02,1.375e+01
2.833e-02,1.444e+01
2.884e-02,1.509e+01
2.934e-02,1.551e+01
2.984e-02,1.577e+01
3.034e-02,1.706e+01
3.084e-02,1.719e+01
3.134e-02,1.772e+01
3.184e-02,1.836e+01
3.235e-02,1.940e+01
3.285e-02,1.906e+01
3.335e-02,1.959e+01
3.385e-02,2.154e+01
3.435e-02,2.087e+01
3.485e-02,2.290e+01
3.536e-02,2.310e+01
3.586e-02,2.396e+01
3.636e-02,2.488e+01
3.686e-02,2.551e+01
3.736e-02,2.588e+01
3.786e-02,2.747e+01
3.836e-02,2.837e+01
3.887e-02,2.860e+01
3.937e-02,2.817e+01
3.987e-02,2.929e+01
4.037e-02,3.095e+01
4.087e-02,3.080e+01
4.137e-02,3.167e+01
4.187e-02,3.141e+01
4.238e-02,3.257e+01
4.288e-02,3.346e+01
4.338e-02,3.419e+01
4.388e-02,3.489e+01
4.438e-02,3.373e+01
4.488e-02,3.381e+01
4.538e-02,3.540e+01
4.589e-02,3.462e+01
4.639e-02,3.481e+01
4.689e-02,3.612e+01
4.739e-02,3.442e+01
4.789e-02,3.472e+01
4.839e-02,3.379e+01
4.890e-02,3.384e+01
4.940e-02,3.357e+01
4.990e-02,3.309e+01
5.040e-02,3.216e+01
5.090e-02,3.168e+01
5.140e-02,3.082e+01
5.190e-02,2.980e+01
5.241e-02,2.867e+01
5.291e-02,2.739e+01
5.341e-02,2.629e+01
5.391e-02,2.615e+01
5.441e-02,2.450e+01
5.491e-02,2.354e+01
5.541e-02,2.149e+01
5.592e-02,2.096e+01
5.642e-02,1.957e+01
5.692e-02,1.866e+01
5.742e-02,1.746e+01
5.792e-02,1.631e+01
5.842e-02,1.450e+01
5.893e-02,1.354e+01
5.943e-02,1.296e+01
5.993e-02,1.195e+01
6.043e-02,1.111e+01
6.093e-02,1.008e+01
6.143e-02,9.214e+00
6.193e-02,8.243e+00
6.244e-02,7.291e+00
6.294e-02,6.830e+00
6.344e-02,5.825e+00
6.394e-02,5.345e+00
6.444e-02,4.646e+00
6.494e-02,4.345e+00
6.544e-02,3.578e+00
6.595e-02,3.282e+00
6.645e-02,2.646e+00
6.695e-02,2.490e+00
6.745e-02,2.301e+00
6.795e-02,2.005e+00
6.845e-02,1.684e+00
6.895e-02,1.311e+00
6.946e-02,1.136e+00
6.996e-02,1.214e+00
7.046e-02,9.515e-01
7.096e-02,7.621e-01
7.146e-02,7.039e-01
7.196e-02,5.194e-01
7.247e-02,4.854e-01
7.297e-02,4.029e-01
7.347e-02,3.252e-01
7.397e-02,3.592e-01
7.447e-02,2.233e-01
7.497e-02,1.748e-01
7.547e-02,1.456e-01
7.598e-02,1.262e-01
7.648e-02,7.767e-02
7.698e-02,1.019e-01
7.748e-02,4.854e-02
7.798e-02,9.709e-02
7.848e-02,2.427e-02
7.898e-02,5.340e-02
7.949e-02,1.942e-02
7.999e-02,2.913e-02
8.049e-02,1.456e-02
8.099e-02,3.884e-02
8.149e-02,9.709e-03
8.199e-02,0.000e+00
8.250e-02,4.854e-03
8.300e-02,4.854e-03
8.350e-02,4.854e-03
8.400e-02,4.854e-03
8.450e-02,4.854e-03
8.500e-02,0.000e+00
8.550e-02,4.854e-03
8.601e-02,4.854e-03
8.651e-02,0.000e+00
8.701e-02,0.000e+00
8.751e-02,0.000e+00
8.801e-02,4.854e-03
8.851e-02,0.000e+00
8.901e-02,0.000e+00
8.952e-02,0.000e+00
9.002e-02,0.000e+00
9.052e-02,0.000e+00
9.102e-02,4.854e-03
9.152e-02,0.000e+00
9.202e-02,0.000e+00
9.252e-02,0.000e+00
9.303e-02,0.000e+00
9.353e-02,0.000e+00
9.403e-02,0.000e+00
9.453e-02,0.000e+00
9.503e-02,0.000e+00
9.553e-02,0.000e+00
9.604e-02,0.000e+00
9.654e-02,0.000e+00
9.704e-02,0.000e+00
9.754e-02,0.000e+00
9.804e-02,0.000e+00
9.854e-02,0.000e+00
9.904e-02,0.000e+00
9.955e-02,0.000e+00
1.000e-01,0.000e+00
