transmittance,probability_density
2.912e-04,3.086e+01
8.737e-04,5.399e+01
1.456e-03,6.096e+01
2.039e-03,6.407e+01
2.621e-03,6.577e+01
3.203e-03,6.677e+01
3.786e-03,6.728e+01
4.368e-03,6.734e+01
4.951e-03,6.693e+01
5.533e-03,6.606e+01
6.116e-03,6.475e+01
6.698e-03,6.304e+01
7.281e-03,6.099e+01
7.863e-03,5.866e+01
8.446e-03,5.614e+01
9.028e-03,5.347e+01
9.610e-03,5.072e+01
1.019e-02,4.794e+01
1.078e-02,4.516e+01
1.136e-02,4.243e+01
1.194e-02,3.978e+01
1.252e-02,3.721e+01
1.311e-02,3.474e+01
1.369e-02,3.239e+01
1.427e-02,3.016e+01
1.485e-02,2.805e+01
1.543e-02,2.607e+01
1.602e-02,2.421e+01
1.660e-02,2.246e+01
1.718e-02,2.084e+01
1.776e-02,1.932e+01
1.835e-02,1.791e+01
1.893e-02,1.659e+01
1.951e-02,1.537e+01
2.009e-02,1.424e+01
2.068e-02,1.319e+01
2.126e-02,1.222e+01
2.184e-02,1.133e+01
2.242e-02,1.049e+01
2.301e-02,9.725e+00
2.359e-02,9.014e+00
2.417e-02,8.356e+00
2.475e-02,7.748e+00
2.534e-02,7.187e+00
2.592e-02,6.667e+00
2.650e-02,6.187e+00
2.708e-02,5.743e+00
2.767e-02,5.333e+00
2.825e-02,4.953e+00
2.883e-02,4.602e+00
2.941e-02,4.277e+00
3.000e-02,3.977e+00
3.058e-02,3.699e+00
3.116e-02,3.441e+00
3.174e-02,3.203e+00
3.233e-02,2.982e+00
3.291e-02,2.778e+00
3.349e-02,2.588e+00
3.407e-02,2.412e+00
3.466e-02,2.249e+00
3.524e-02,2.098e+00
3.582e-02,1.958e+00
3.640e-02,1.827e+00
3.699e-02,1.706e+00
3.757e-02,1.594e+00
3.815e-02,1.489e+00
3.873e-02,1.392e+00
3.932e-02,1.302e+00
3.990e-02,1.218e+00
4.048e-02,1.140e+00
4.106e-02,1.067e+00
4.165e-02,9.989e-01
4.223e-02,9.358e-01
4.281e-02,8.769e-01
4.339e-02,8.220e-01
4.397e-02,7.708e-01
4.456e-02,7.231e-01
4.514e-02,6.785e-01
4.572e-02,6.369e-01
4.630e-02,5.980e-01
4.689e-02,5.617e-01
4.747e-02,5.278e-01
4.805e-02,4.961e-01
4.863e-02,4.664e-01
4.922e-02,4.387e-01
4.980e-02,4.127e-01
5.038e-02,3.884e-01
5.096e-02,3.656e-01
5.155e-02,3.443e-01
5.213e-02,3.243e-01
5.271e-02,3.056e-01
5.329e-02,2.880e-01
5.388e-02,2.715e-01
5.446e-02,2.561e-01
5.504e-02,2.416e-01
5.562e-02,2.280e-01
5.621e-02,2.152e-01
5.679e-02,2.031e-01
5.737e-02,1.919e-01
5.795e-02,1.812e-01
5.854e-02,1.713e-01
5.912e-02,1.619e-01
5.970e-02,1.530e-01
6.028e-02,1.447e-01
6.087e-02,1.369e-01
6.145e-02,1.295e-01
6.203e-02,1.226e-01
6.261e-02,1.161e-01
6.320e-02,1.099e-01
6.378e-02,1.041e-01
6.436e-02,9.861e-02
6.494e-02,9.344e-02
6.553e-02,8.857e-02
6.611e-02,8.397e-02
6.669e-02,7.963e-02
6.727e-02,7.553e-02
6.786e-02,7.165e-02
6.844e-02,6.800e-02
6.902e-02,6.454e-02
6.960e-02,6.128e-02
7.019e-02,5.819e-02
7.077e-02,5.527e-02
7.135e-02,5.251e-02
7.193e-02,4.989e-02
7.252e-02,4.742e-02
7.310e-02,4.508e-02
7.368e-02,4.287e-02
7.426e-02,4.077e-02
7.484e-02,3.878e-02
7.543e-02,3.690e-02
7.601e-02,3.511e-02
7.659e-02,3.342e-02
7.717e-02,3.182e-02
7.776e-02,3.030e-02
7.834e-02,2.886e-02
7.892e-02,2.749e-02
7.950e-02,2.619e-02
8.009e-02,2.496e-02
8.067e-02,2.379e-02
8.125e-02,2.268e-02
8.183e-02,2.163e-02
8.242e-02,2.063e-02
8.300e-02,1.967e-02
8.358e-02,1.877e-02
8.416e-02,1.791e-02
8.475e-02,1.709e-02
8.533e-02,1.632e-02
8.591e-02,1.558e-02
8.649e-02,1.488e-02
8.708e-02,1.421e-02
8.766e-02,1.357e-02
8.824e-02,1.297e-02
8.882e-02,1.239e-02
8.941e-02,1.184e-02
8.999e-02,1.132e-02
9.057e-02,1.082e-02
9.115e-02,1.035e-02
9.174e-02,9.895e-03
9.232e-02,9.465e-03
9.290e-02,9.055e-03
9.348e-02,8.664e-03
9.407e-02,8.291e-03
9.465e-02,7.935e-03
9.523e-02,7.596e-03
9.581e-02,7.273e-03
9.640e-02,6.964e-03
9.698e-02,6.670e-03
9.756e-02,6.388e-03
9.814e-02,6.120e-03
9.873e-02,5.864e-03
9.931e-02,5.619e-03
9.989e-02,5.386e-03
1.005e-01,5.162e-03
1.011e-01,4.949e-03
1.016e-01,4.745e-03
1.022e-01,4.551e-03
1.028e-01,4.364e-03
1.034e-01,4.187e-03
1.040e-01,4.016e-03
1.045e-01,3.854e-03
1.051e-01,3.698e-03
1.057e-01,3.549e-03
1.063e-01,3.407e-03
1.069e-01,3.271e-03
1.075e-01,3.140e-03
1.080e-01,3.016e-03
1.086e-01,2.896e-03
1.092e-01,2.782e-03
1.098e-01,2.672e-03
1.104e-01,2.568e-03
1.110e-01,2.467e-03
1.115e-01,2.371e-03
1.121e-01,2.279e-03
1.127e-01,2.190e-03
1.133e-01,2.106e-03
1.139e-01,2.025e-03
1.145e-01,1.947e-03
1.150e-01,1.872e-03
1.156e-01,1.801e-03
1.162e-01,1.733e-03
