transmittance,probability_density
3.581e-04,4.812e-01
1.074e-03,2.335e+00
1.790e-03,5.205e+00
2.506e-03,9.535e+00
3.222e-03,1.314e+01
3.939e-03,1.753e+01
4.655e-03,2.148e+01
5.371e-03,2.507e+01
6.087e-03,2.786e+01
6.803e-03,3.094e+01
7.519e-03,3.395e+01
8.235e-03,3.506e+01
8.951e-03,3.710e+01
9.667e-03,3.768e+01
1.038e-02,3.899e+01
1.110e-02,3.920e+01
1.182e-02,3.987e+01
1.253e-02,3.946e+01
1.325e-02,4.077e+01
1.396e-02,3.931e+01
1.468e-02,3.823e+01
1.540e-02,3.888e+01
1.611e-02,3.727e+01
1.683e-02,3.604e+01
1.754e-02,3.556e+01
1.826e-02,3.395e+01
1.898e-02,3.319e+01
1.969e-02,3.189e+01
2.041e-02,3.056e+01
2.112e-02,2.940e+01
2.184e-02,2.768e+01
2.256e-02,2.704e+01
2.327e-02,2.609e+01
2.399e-02,2.441e+01
2.471e-02,2.301e+01
2.542e-02,2.258e+01
2.614e-02,2.130e+01
2.685e-02,2.034e+01
2.757e-02,1.911e+01
2.829e-02,1.816e+01
2.900e-02,1.739e+01
2.972e-02,1.623e+01
3.043e-02,1.568e+01
3.115e-02,1.474e+01
3.187e-02,1.383e+01
3.258e-02,1.331e+01
3.330e-02,1.233e+01
3.401e-02,1.163e+01
3.473e-02,1.098e+01
3.545e-02,1.056e+01
3.616e-02,1.021e+01
3.688e-02,8.970e+00
3.760e-02,8.380e+00
3.831e-02,8.000e+00
3.903e-02,7.724e+00
3.974e-02,7.372e+00
4.046e-02,6.393e+00
4.118e-02,6.226e+00
4.189e-02,5.853e+00
4.261e-02,5.489e+00
4.332e-02,5.498e+00
4.404e-02,4.590e+00
4.476e-02,4.485e+00
4.547e-02,4.188e+00
4.619e-02,3.950e+00
4.690e-02,3.627e+00
4.762e-02,3.339e+00
4.834e-02,3.217e+00
4.905e-02,2.870e+00
4.977e-02,2.816e+00
5.049e-02,2.628e+00
5.120e-02,2.460e+00
5.192e-02,2.431e+00
5.263e-02,2.163e+00
5.335e-02,2.184e+00
5.407e-02,1.812e+00
5.478e-02,1.690e+00
5.550e-02,1.573e+00
5.621e-02,1.330e+00
5.693e-02,1.197e+00
5.765e-02,1.423e+00
5.836e-02,1.301e+00
5.908e-02,9.623e-01
5.979e-02,9.749e-01
6.051e-02,1.004e+00
6.123e-02,8.535e-01
6.194e-02,7.657e-01
6.266e-02,7.071e-01
6.337e-02,6.862e-01
6.409e-02,6.820e-01
6.481e-02,6.485e-01
6.552e-02,5.774e-01
6.624e-02,5.230e-01
6.696e-02,4.644e-01
6.767e-02,4.728e-01
6.839e-02,4.435e-01
6.910e-02,3.849e-01
6.982e-02,4.226e-01
7.054e-02,2.971e-01
7.125e-02,3.556e-01
7.197e-02,2.761e-01
7.268e-02,2.301e-01
7.340e-02,2.301e-01
7.412e-02,2.259e-01
7.483e-02,2.678e-01
7.555e-02,1.674e-01
7.626e-02,1.757e-01
7.698e-02,1.506e-01
7.770e-02,1.255e-01
7.841e-02,1.381e-01
7.913e-02,1.381e-01
7.985e-02,1.423e-01
8.056e-02,7.113e-02
8.128e-02,7.949e-02
8.199e-02,5.857e-02
8.271e-02,7.531e-02
8.343e-02,9.205e-02
8.414e-02,7.113e-02
8.486e-02,7.949e-02
8.557e-02,6.694e-02
8.629e-02,4.602e-02
8.701e-02,5.021e-02
8.772e-02,5.857e-02
8.844e-02,4.602e-02
8.915e-02,4.184e-02
8.987e-02,2.092e-02
9.059e-02,4.602e-02
9.130e-02,3.766e-02
9.202e-02,2.510e-02
9.273e-02,2.929e-02
9.345e-02,3.347e-02
9.417e-02,2.929e-02
9.488e-02,8.368e-03
9.560e-02,2.510e-02
9.632e-02,4.184e-03
9.703e-02,1.674e-02
9.775e-02,0.000e+00
9.846e-02,4.184e-03
9.918e-02,8.368e-03
9.990e-02,8.368e-03
1.006e-01,8.368e-03
1.013e-01,8.368e-03
1.020e-01,8.368e-03
1.028e-01,0.000e+00
1.035e-01,0.000e+00
1.042e-01,4.184e-03
1.049e-01,0.000e+00
1.056e-01,4.184e-03
1.063e-01,4.184e-03
1.071e-01,0.000e+00
1.078e-01,0.000e+00
1.085e-01,0.000e+00
1.092e-01,0.000e+00
1.099e-01,4.184e-03
1.106e-01,4.184e-03
1.114e-01,0.000e+00
1.121e-01,4.184e-03
1.128e-01,0.000e+00
1.135e-01,0.000e+00
1.142e-01,0.000e+00
1.149e-01,0.000e+00
1.157e-01,4.184e-03
1.164e-01,0.000e+00
1.171e-01,8.368e-03
1.178e-01,4.184e-03
1.185e-01,4.184e-03
1.192e-01,0.000e+00
1.199e-01,0.000e+00
1.207e-01,0.000e+00
1.214e-01,0.000e+00
1.221e-01,0.000e+00
1.228e-01,0.000e+00
1.235e-01,0.000e+00
1.242e-01,0.000e+00
1.250e-01,0.000e+00
1.257e-01,0.000e+00
1.264e-01,4.184e-03
1.271e-01,0.000e+00
1.278e-01,0.000e+00
1.285e-01,0.000e+00
1.293e-01,0.000e+00
1.300e-01,4.184e-03
1.307e-01,0.000e+00
1.314e-01,0.000e+00
1.321e-01,0.000e+00
1.328e-01,0.000e+00
1.336e-01,0.000e+00
1.343e-01,0.000e+00
1.350e-01,0.000e+00
1.357e-01,0.000e+00
1.364e-01,0.000e+00
1.371e-01,0.000e+00
1.378e-01,0.000e+00
1.386e-01,0.000e+00
1.393e-01,0.000e+00
1.400e-01,0.000e+00
1.407e-01,0.000e+00
1.414e-01,0.000e+00
1.421e-01,0.000e+00
1.429e-01,0.000e+00
