transmittance,probability_density
6.514e-01,0.000e+00
6.532e-01,0.000e+00
6.549e-01,0.000e+00
6.567e-01,0.000e+00
6.584e-01,0.000e+00
6.602e-01,0.000e+00
6.619e-01,0.000e+00
6.636e-01,0.000e+00
6.654e-01,0.000e+00
6.671e-01,0.000e+00
6.689e-01,0.000e+00
6.706e-01,0.000e+00
6.724e-01,0.000e+00
6.741e-01,0.000e+00
6.759e-01,0.000e+00
6.776e-01,0.000e+00
6.794e-01,0.000e+00
6.811e-01,0.000e+00
6.829e-01,0.000e+00
6.846e-01,0.000e+00
6.864e-01,0.000e+00
6.881e-01,0.000e+00
6.899e-01,0.000e+00
6.916e-01,0.000e+00
6.934e-01,0.000e+00
6.951e-01,0.000e+00
6.968e-01,0.000e+00
6.986e-01,0.000e+00
7.003e-01,0.000e+00
7.021e-01,0.000e+00
7.038e-01,0.000e+00
7.056e-01,0.000e+00
7.073e-01,0.000e+00
7.091e-01,0.000e+00
7.108e-01,0.000e+00
7.126e-01,0.000e+00
7.143e-01,0.000e+00
7.161e-01,5.723e-03
7.178e-01,0.000e+00
7.196e-01,0.000e+00
7.213e-01,0.000e+00
7.231e-01,0.000e+00
7.248e-01,0.000e+00
7.266e-01,0.000e+00
7.283e-01,0.000e+00
7.300e-01,0.000e+00
7.318e-01,0.000e+00
7.335e-01,0.000e+00
7.353e-01,0.000e+00
7.370e-01,0.000e+00
7.388e-01,0.000e+00
7.405e-01,0.000e+00
7.423e-01,0.000e+00
7.440e-01,0.000e+00
7.458e-01,0.000e+00
7.475e-01,0.000e+00
7.493e-01,0.000e+00
7.510e-01,0.000e+00
7.528e-01,0.000e+00
7.545e-01,0.000e+00
7.563e-01,0.000e+00
7.580e-01,0.000e+00
7.597e-01,0.000e+00
7.615e-01,0.000e+00
7.632e-01,0.000e+00
7.650e-01,0.000e+00
7.667e-01,0.000e+00
7.685e-01,0.000e+00
7.702e-01,0.000e+00
7.720e-01,0.000e+00
7.737e-01,0.000e+00
7.755e-01,0.000e+00
7.772e-01,0.000e+00
7.790e-01,0.000e+00
7.807e-01,0.000e+00
7.825e-01,0.000e+00
7.842e-01,0.000e+00
7.860e-01,5.723e-03
7.877e-01,0.000e+00
7.895e-01,0.000e+00
7.912e-01,0.000e+00
7.929e-01,0.000e+00
7.947e-01,0.000e+00
7.964e-01,5.723e-03
7.982e-01,0.000e+00
7.999e-01,0.000e+00
8.017e-01,5.723e-03
8.034e-01,0.000e+00
8.052e-01,0.000e+00
8.069e-01,0.000e+00
8.087e-01,0.000e+00
8.104e-01,1.145e-02
8.122e-01,0.000e+00
8.139e-01,5.723e-03
8.157e-01,5.723e-03
8.174e-01,0.000e+00
8.192e-01,0.000e+00
8.209e-01,0.000e+00
8.227e-01,1.145e-02
8.244e-01,5.723e-03
8.261e-01,5.723e-03
8.279e-01,5.723e-03
8.296e-01,1.145e-02
8.314e-01,2.862e-02
8.331e-01,0.000e+00
8.349e-01,0.000e+00
8.366e-01,5.723e-03
8.384e-01,1.717e-02
8.401e-01,1.717e-02
8.419e-01,1.145e-02
8.436e-01,2.289e-02
8.454e-01,2.289e-02
8.471e-01,1.717e-02
8.489e-01,1.145e-02
8.506e-01,4.006e-02
8.524e-01,5.723e-03
8.541e-01,2.289e-02
8.558e-01,2.862e-02
8.576e-01,4.006e-02
8.593e-01,5.151e-02
8.611e-01,6.296e-02
8.628e-01,6.296e-02
8.646e-01,7.440e-02
8.663e-01,8.585e-02
8.681e-01,5.723e-02
8.698e-01,5.723e-02
8.716e-01,9.729e-02
8.733e-01,6.868e-02
8.751e-01,1.202e-01
8.768e-01,1.259e-01
8.786e-01,9.729e-02
8.803e-01,1.545e-01
8.821e-01,1.774e-01
8.838e-01,1.831e-01
8.856e-01,2.575e-01
8.873e-01,2.518e-01
8.890e-01,3.148e-01
8.908e-01,4.006e-01
8.925e-01,3.835e-01
8.943e-01,4.464e-01
8.960e-01,4.407e-01
8.978e-01,6.353e-01
8.995e-01,7.440e-01
9.013e-01,6.582e-01
9.030e-01,8.985e-01
9.048e-01,8.814e-01
9.065e-01,9.615e-01
9.083e-01,1.276e+00
9.100e-01,1.488e+00
9.118e-01,1.711e+00
9.135e-01,1.900e+00
9.153e-01,2.203e+00
9.170e-01,2.186e+00
9.188e-01,2.867e+00
9.205e-01,2.953e+00
9.222e-01,3.754e+00
9.240e-01,4.304e+00
9.257e-01,4.676e+00
9.275e-01,5.357e+00
9.292e-01,6.519e+00
9.310e-01,7.211e+00
9.327e-01,8.642e+00
9.345e-01,9.621e+00
9.362e-01,1.079e+01
9.380e-01,1.347e+01
9.397e-01,1.383e+01
9.415e-01,1.730e+01
9.432e-01,1.918e+01
9.450e-01,2.253e+01
9.467e-01,2.363e+01
9.485e-01,2.835e+01
9.502e-01,2.994e+01
9.520e-01,3.487e+01
9.537e-01,3.605e+01
9.554e-01,4.037e+01
9.572e-01,3.788e+01
9.589e-01,3.892e+01
9.607e-01,3.439e+01
9.624e-01,3.139e+01
9.642e-01,2.413e+01
9.659e-01,1.893e+01
9.677e-01,1.074e+01
9.694e-01,6.227e+00
9.712e-01,2.495e+00
9.729e-01,8.413e-01
9.747e-01,2.347e-01
9.764e-01,2.289e-02
9.782e-01,0.000e+00
9.799e-01,0.000e+00
9.817e-01,0.000e+00
9.834e-01,0.000e+00
9.851e-01,0.000e+00
9.869e-01,0.000e+00
9.886e-01,0.000e+00
9.904e-01,0.000e+00
9.921e-01,0.000e+00
9.939e-01,0.000e+00
9.956e-01,0.000e+00
9.974e-01,0.000e+00
9.991e-01,0.000e+00
