transmittance,probability_density
7.300e-01,0.000e+00
7.314e-01,0.000e+00
7.327e-01,0.000e+00
7.341e-01,0.000e+00
7.355e-01,0.000e+00
7.368e-01,0.000e+00
7.382e-01,0.000e+00
7.395e-01,0.000e+00
7.409e-01,0.000e+00
7.422e-01,0.000e+00
7.436e-01,0.000e+00
7.449e-01,0.000e+00
7.463e-01,0.000e+00
7.476e-01,0.000e+00
7.490e-01,0.000e+00
7.503e-01,0.000e+00
7.517e-01,0.000e+00
7.530e-01,0.000e+00
7.544e-01,0.000e+00
7.558e-01,0.000e+00
7.571e-01,0.000e+00
7.585e-01,0.000e+00
7.598e-01,0.000e+00
7.612e-01,0.000e+00
7.625e-01,0.000e+00
7.639e-01,0.000e+00
7.652e-01,0.000e+00
7.666e-01,0.000e+00
7.679e-01,0.000e+00
7.693e-01,0.000e+00
7.706e-01,0.000e+00
7.720e-01,0.000e+00
7.733e-01,0.000e+00
7.747e-01,0.000e+00
7.760e-01,0.000e+00
7.774e-01,0.000e+00
7.788e-01,0.000e+00
7.801e-01,0.000e+00
7.815e-01,0.000e+00
7.828e-01,0.000e+00
7.842e-01,0.000e+00
7.855e-01,0.000e+00
7.869e-01,0.000e+00
7.882e-01,0.000e+00
7.896e-01,0.000e+00
7.909e-01,0.000e+00
7.923e-01,0.000e+00
7.936e-01,0.000e+00
7.950e-01,0.000e+00
7.963e-01,0.000e+00
7.977e-01,0.000e+00
7.991e-01,0.000e+00
8.004e-01,0.000e+00
8.018e-01,7.390e-03
8.031e-01,0.000e+00
8.045e-01,0.000e+00
8.058e-01,0.000e+00
8.072e-01,0.000e+00
8.085e-01,0.000e+00
8.099e-01,0.000e+00
8.112e-01,0.000e+00
8.126e-01,0.000e+00
8.139e-01,0.000e+00
8.153e-01,0.000e+00
8.166e-01,0.000e+00
8.180e-01,0.000e+00
8.194e-01,0.000e+00
8.207e-01,0.000e+00
8.221e-01,0.000e+00
8.234e-01,0.000e+00
8.248e-01,0.000e+00
8.261e-01,0.000e+00
8.275e-01,0.000e+00
8.288e-01,0.000e+00
8.302e-01,0.000e+00
8.315e-01,0.000e+00
8.329e-01,0.000e+00
8.342e-01,0.000e+00
8.356e-01,0.000e+00
8.369e-01,0.000e+00
8.383e-01,0.000e+00
8.396e-01,0.000e+00
8.410e-01,0.000e+00
8.424e-01,0.000e+00
8.437e-01,0.000e+00
8.451e-01,0.000e+00
8.464e-01,0.000e+00
8.478e-01,0.000e+00
8.491e-01,0.000e+00
8.505e-01,0.000e+00
8.518e-01,0.000e+00
8.532e-01,7.390e-03
8.545e-01,0.000e+00
8.559e-01,0.000e+00
8.572e-01,0.000e+00
8.586e-01,0.000e+00
8.599e-01,0.000e+00
8.613e-01,0.000e+00
8.627e-01,7.390e-03
8.640e-01,7.390e-03
8.654e-01,0.000e+00
8.667e-01,7.390e-03
8.681e-01,0.000e+00
8.694e-01,0.000e+00
8.708e-01,0.000e+00
8.721e-01,0.000e+00
8.735e-01,0.000e+00
8.748e-01,7.390e-03
8.762e-01,0.000e+00
8.775e-01,0.000e+00
8.789e-01,7.390e-03
8.802e-01,2.217e-02
8.816e-01,1.478e-02
8.829e-01,1.478e-02
8.843e-01,7.390e-03
8.857e-01,3.695e-02
8.870e-01,7.390e-03
8.884e-01,7.390e-03
8.897e-01,0.000e+00
8.911e-01,1.478e-02
8.924e-01,3.695e-02
8.938e-01,2.217e-02
8.951e-01,5.173e-02
8.965e-01,4.434e-02
8.978e-01,2.217e-02
8.992e-01,8.129e-02
9.005e-01,5.173e-02
9.019e-01,4.434e-02
9.032e-01,2.217e-02
9.046e-01,3.695e-02
9.060e-01,1.404e-01
9.073e-01,8.129e-02
9.087e-01,1.108e-01
9.100e-01,8.868e-02
9.114e-01,1.035e-01
9.127e-01,1.182e-01
9.141e-01,2.513e-01
9.154e-01,1.700e-01
9.168e-01,2.586e-01
9.181e-01,3.030e-01
9.195e-01,2.734e-01
9.208e-01,3.473e-01
9.222e-01,4.803e-01
9.235e-01,3.104e-01
9.249e-01,6.208e-01
9.263e-01,7.612e-01
9.276e-01,7.907e-01
9.290e-01,9.903e-01
9.303e-01,1.101e+00
9.317e-01,1.360e+00
9.330e-01,1.323e+00
9.344e-01,1.811e+00
9.357e-01,2.003e+00
9.371e-01,2.158e+00
9.384e-01,2.867e+00
9.398e-01,3.525e+00
9.411e-01,3.880e+00
9.425e-01,4.271e+00
9.438e-01,5.764e+00
9.452e-01,6.156e+00
9.465e-01,7.796e+00
9.479e-01,9.090e+00
9.493e-01,1.097e+01
9.506e-01,1.227e+01
9.520e-01,1.567e+01
9.533e-01,1.751e+01
9.547e-01,2.185e+01
9.560e-01,2.485e+01
9.574e-01,3.135e+01
9.587e-01,3.636e+01
9.601e-01,3.841e+01
9.614e-01,4.743e+01
9.628e-01,4.778e+01
9.641e-01,5.704e+01
9.655e-01,5.494e+01
9.668e-01,6.010e+01
9.682e-01,5.197e+01
9.696e-01,4.908e+01
9.709e-01,3.790e+01
9.723e-01,3.025e+01
9.736e-01,1.753e+01
9.750e-01,9.866e+00
9.763e-01,4.271e+00
9.777e-01,1.352e+00
9.790e-01,3.104e-01
9.804e-01,2.956e-02
9.817e-01,7.390e-03
9.831e-01,0.000e+00
9.844e-01,0.000e+00
9.858e-01,0.000e+00
9.871e-01,0.000e+00
9.885e-01,0.000e+00
9.899e-01,0.000e+00
9.912e-01,0.000e+00
9.926e-01,0.000e+00
9.939e-01,0.000e+00
9.953e-01,0.000e+00
9.966e-01,0.000e+00
9.980e-01,0.000e+00
9.993e-01,0.000e+00
