transmittance,probability_density
2.732e-04,2.346e+01
8.196e-04,4.088e+01
1.366e-03,4.955e+01
1.912e-03,5.439e+01
2.459e-03,5.706e+01
3.005e-03,5.834e+01
3.552e-03,5.870e+01
4.098e-03,5.841e+01
4.645e-03,5.767e+01
5.191e-03,5.660e+01
5.737e-03,5.529e+01
6.284e-03,5.382e+01
6.830e-03,5.223e+01
7.377e-03,5.057e+01
7.923e-03,4.886e+01
8.470e-03,4.713e+01
9.016e-03,4.540e+01
9.562e-03,4.367e+01
1.011e-02,4.197e+01
1.066e-02,4.029e+01
1.120e-02,3.865e+01
1.175e-02,3.705e+01
1.229e-02,3.549e+01
1.284e-02,3.398e+01
1.339e-02,3.251e+01
1.393e-02,3.109e+01
1.448e-02,2.973e+01
1.503e-02,2.841e+01
1.557e-02,2.714e+01
1.612e-02,2.592e+01
1.667e-02,2.474e+01
1.721e-02,2.362e+01
1.776e-02,2.254e+01
1.831e-02,2.150e+01
1.885e-02,2.051e+01
1.940e-02,1.955e+01
1.994e-02,1.864e+01
2.049e-02,1.777e+01
2.104e-02,1.694e+01
2.158e-02,1.614e+01
2.213e-02,1.538e+01
2.268e-02,1.465e+01
2.322e-02,1.396e+01
2.377e-02,1.329e+01
2.432e-02,1.266e+01
2.486e-02,1.205e+01
2.541e-02,1.148e+01
2.596e-02,1.093e+01
2.650e-02,1.040e+01
2.705e-02,9.901e+00
2.759e-02,9.424e+00
2.814e-02,8.969e+00
2.869e-02,8.535e+00
2.923e-02,8.122e+00
2.978e-02,7.728e+00
3.033e-02,7.352e+00
3.087e-02,6.995e+00
3.142e-02,6.654e+00
3.197e-02,6.330e+00
3.251e-02,6.021e+00
3.306e-02,5.727e+00
3.361e-02,5.447e+00
3.415e-02,5.180e+00
3.470e-02,4.926e+00
3.524e-02,4.684e+00
3.579e-02,4.454e+00
3.634e-02,4.235e+00
3.688e-02,4.027e+00
3.743e-02,3.829e+00
3.798e-02,3.640e+00
3.852e-02,3.460e+00
3.907e-02,3.289e+00
3.962e-02,3.127e+00
4.016e-02,2.972e+00
4.071e-02,2.825e+00
4.126e-02,2.685e+00
4.180e-02,2.552e+00
4.235e-02,2.426e+00
4.289e-02,2.305e+00
4.344e-02,2.191e+00
4.399e-02,2.082e+00
4.453e-02,1.978e+00
4.508e-02,1.880e+00
4.563e-02,1.786e+00
4.617e-02,1.697e+00
4.672e-02,1.612e+00
4.727e-02,1.532e+00
4.781e-02,1.455e+00
4.836e-02,1.383e+00
4.891e-02,1.314e+00
4.945e-02,1.248e+00
5.000e-02,1.185e+00
5.054e-02,1.126e+00
5.109e-02,1.070e+00
5.164e-02,1.016e+00
5.218e-02,9.649e-01
5.273e-02,9.164e-01
5.328e-02,8.704e-01
5.382e-02,8.266e-01
5.437e-02,7.850e-01
5.492e-02,7.455e-01
5.546e-02,7.080e-01
5.601e-02,6.723e-01
5.655e-02,6.384e-01
5.710e-02,6.062e-01
5.765e-02,5.756e-01
5.819e-02,5.465e-01
5.874e-02,5.189e-01
5.929e-02,4.927e-01
5.983e-02,4.677e-01
6.038e-02,4.441e-01
6.093e-02,4.216e-01
6.147e-02,4.002e-01
6.202e-02,3.799e-01
6.257e-02,3.607e-01
6.311e-02,3.423e-01
6.366e-02,3.250e-01
6.420e-02,3.084e-01
6.475e-02,2.928e-01
6.530e-02,2.779e-01
6.584e-02,2.637e-01
6.639e-02,2.503e-01
6.694e-02,2.376e-01
6.748e-02,2.254e-01
6.803e-02,2.139e-01
6.858e-02,2.030e-01
6.912e-02,1.927e-01
6.967e-02,1.828e-01
7.022e-02,1.735e-01
7.076e-02,1.646e-01
7.131e-02,1.562e-01
7.185e-02,1.482e-01
7.240e-02,1.406e-01
7.295e-02,1.334e-01
7.349e-02,1.266e-01
7.404e-02,1.201e-01
7.459e-02,1.139e-01
7.513e-02,1.080e-01
7.568e-02,1.025e-01
7.623e-02,9.723e-02
7.677e-02,9.222e-02
7.732e-02,8.748e-02
7.787e-02,8.297e-02
7.841e-02,7.870e-02
7.896e-02,7.464e-02
7.950e-02,7.079e-02
8.005e-02,6.714e-02
8.060e-02,6.367e-02
8.114e-02,6.039e-02
8.169e-02,5.726e-02
8.224e-02,5.430e-02
8.278e-02,5.149e-02
8.333e-02,4.883e-02
8.388e-02,4.630e-02
8.442e-02,4.390e-02
8.497e-02,4.162e-02
8.552e-02,3.946e-02
8.606e-02,3.742e-02
8.661e-02,3.547e-02
8.715e-02,3.363e-02
8.770e-02,3.188e-02
8.825e-02,3.022e-02
8.879e-02,2.865e-02
8.934e-02,2.716e-02
8.989e-02,2.574e-02
9.043e-02,2.440e-02
9.098e-02,2.313e-02
9.153e-02,2.192e-02
9.207e-02,2.078e-02
9.262e-02,1.969e-02
9.317e-02,1.866e-02
9.371e-02,1.769e-02
9.426e-02,1.676e-02
9.480e-02,1.589e-02
9.535e-02,1.505e-02
9.590e-02,1.426e-02
9.644e-02,1.352e-02
9.699e-02,1.281e-02
9.754e-02,1.214e-02
9.808e-02,1.150e-02
9.863e-02,1.089e-02
9.918e-02,1.032e-02
9.972e-02,9.778e-03
1.003e-01,9.264e-03
1.008e-01,8.776e-03
1.014e-01,8.314e-03
1.019e-01,7.875e-03
1.025e-01,7.460e-03
1.030e-01,7.066e-03
1.035e-01,6.693e-03
1.041e-01,6.340e-03
1.046e-01,6.005e-03
1.052e-01,5.687e-03
1.057e-01,5.386e-03
1.063e-01,5.101e-03
1.068e-01,4.831e-03
1.074e-01,4.575e-03
1.079e-01,4.332e-03
1.085e-01,4.102e-03
1.090e-01,3.884e-03
