transmittance,probability_density
2.245e-03,0.000e+00
6.734e-03,0.000e+00
1.122e-02,2.227e-03
1.571e-02,8.909e-03
2.020e-02,2.227e-02
2.469e-02,4.900e-02
2.918e-02,5.568e-02
3.367e-02,1.091e-01
3.816e-02,1.626e-01
4.265e-02,2.027e-01
4.714e-02,2.517e-01
5.163e-02,3.074e-01
5.612e-02,4.232e-01
6.061e-02,4.655e-01
6.510e-02,4.856e-01
6.959e-02,6.816e-01
7.408e-02,8.865e-01
7.857e-02,8.263e-01
8.306e-02,1.091e+00
8.755e-02,1.245e+00
9.204e-02,1.381e+00
9.653e-02,1.490e+00
1.010e-01,1.664e+00
1.055e-01,1.851e+00
1.100e-01,2.076e+00
1.145e-01,2.181e+00
1.190e-01,2.626e+00
1.235e-01,2.840e+00
1.280e-01,3.125e+00
1.324e-01,3.437e+00
1.369e-01,3.599e+00
1.414e-01,3.962e+00
1.459e-01,4.118e+00
1.504e-01,4.346e+00
1.549e-01,4.755e+00
1.594e-01,4.657e+00
1.639e-01,5.453e+00
1.684e-01,5.513e+00
1.729e-01,5.976e+00
1.773e-01,6.014e+00
1.818e-01,6.101e+00
1.863e-01,6.250e+00
1.908e-01,6.317e+00
1.953e-01,6.490e+00
1.998e-01,6.604e+00
2.043e-01,6.397e+00
2.088e-01,6.573e+00
2.133e-01,6.511e+00
2.177e-01,6.203e+00
2.222e-01,6.009e+00
2.267e-01,6.196e+00
2.312e-01,5.976e+00
2.357e-01,5.827e+00
2.402e-01,5.228e+00
2.447e-01,5.023e+00
2.492e-01,4.856e+00
2.537e-01,4.626e+00
2.582e-01,4.170e+00
2.626e-01,3.918e+00
2.671e-01,3.749e+00
2.716e-01,3.406e+00
2.761e-01,3.225e+00
2.806e-01,2.902e+00
2.851e-01,2.606e+00
2.896e-01,2.421e+00
2.941e-01,2.212e+00
2.986e-01,1.980e+00
3.031e-01,1.622e+00
3.075e-01,1.466e+00
3.120e-01,1.303e+00
3.165e-01,1.274e+00
3.210e-01,1.085e+00
3.255e-01,1.000e+00
3.300e-01,7.395e-01
3.345e-01,6.571e-01
3.390e-01,5.613e-01
3.435e-01,4.611e-01
3.479e-01,4.254e-01
3.524e-01,3.876e-01
3.569e-01,3.029e-01
3.614e-01,2.428e-01
3.659e-01,2.294e-01
3.704e-01,1.537e-01
3.749e-01,1.381e-01
3.794e-01,1.225e-01
3.839e-01,9.800e-02
3.884e-01,8.464e-02
3.928e-01,7.128e-02
3.973e-01,3.786e-02
4.018e-01,4.900e-02
4.063e-01,2.227e-02
4.108e-01,2.673e-02
4.153e-01,2.227e-02
4.198e-01,6.682e-03
4.243e-01,4.455e-03
4.288e-01,4.455e-03
4.333e-01,4.455e-03
4.377e-01,8.909e-03
4.422e-01,0.000e+00
4.467e-01,2.227e-03
4.512e-01,2.227e-03
4.557e-01,2.227e-03
4.602e-01,0.000e+00
4.647e-01,0.000e+00
4.692e-01,0.000e+00
4.737e-01,2.227e-03
4.781e-01,0.000e+00
4.826e-01,0.000e+00
4.871e-01,0.000e+00
4.916e-01,0.000e+00
4.961e-01,0.000e+00
5.006e-01,0.000e+00
5.051e-01,0.000e+00
5.096e-01,0.000e+00
5.141e-01,0.000e+00
5.186e-01,0.000e+00
5.230e-01,0.000e+00
5.275e-01,0.000e+00
5.320e-01,0.000e+00
5.365e-01,0.000e+00
5.410e-01,0.000e+00
5.455e-01,0.000e+00
5.500e-01,0.000e+00
5.545e-01,0.000e+00
5.590e-01,0.000e+00
5.635e-01,0.000e+00
5.679e-01,0.000e+00
5.724e-01,0.000e+00
5.769e-01,0.000e+00
5.814e-01,0.000e+00
5.859e-01,0.000e+00
5.904e-01,0.000e+00
5.949e-01,0.000e+00
5.994e-01,0.000e+00
6.039e-01,0.000e+00
6.083e-01,0.000e+00
6.128e-01,0.000e+00
6.173e-01,0.000e+00
6.218e-01,0.000e+00
6.263e-01,0.000e+00
6.308e-01,0.000e+00
6.353e-01,0.000e+00
6.398e-01,0.000e+00
6.443e-01,0.000e+00
6.488e-01,0.000e+00
6.532e-01,0.000e+00
6.577e-01,0.000e+00
6.622e-01,0.000e+00
6.667e-01,0.000e+00
6.712e-01,0.000e+00
6.757e-01,0.000e+00
6.802e-01,0.000e+00
6.847e-01,0.000e+00
6.892e-01,0.000e+00
6.937e-01,0.000e+00
6.981e-01,0.000e+00
7.026e-01,0.000e+00
7.071e-01,0.000e+00
7.116e-01,0.000e+00
7.161e-01,0.000e+00
7.206e-01,0.000e+00
7.251e-01,0.000e+00
7.296e-01,0.000e+00
7.341e-01,0.000e+00
7.385e-01,0.000e+00
7.430e-01,0.000e+00
7.475e-01,0.000e+00
7.520e-01,0.000e+00
7.565e-01,0.000e+00
7.610e-01,0.000e+00
7.655e-01,0.000e+00
7.700e-01,0.000e+00
7.745e-01,0.000e+00
7.790e-01,0.000e+00
7.834e-01,0.000e+00
7.879e-01,0.000e+00
7.924e-01,0.000e+00
7.969e-01,0.000e+00
8.014e-01,0.000e+00
8.059e-01,0.000e+00
8.104e-01,0.000e+00
8.149e-01,0.000e+00
8.194e-01,0.000e+00
8.239e-01,0.000e+00
8.283e-01,0.000e+00
8.328e-01,0.000e+00
8.373e-01,0.000e+00
8.418e-01,0.000e+00
8.463e-01,0.000e+00
8.508e-01,0.000e+00
8.553e-01,0.000e+00
8.598e-01,0.000e+00
8.643e-01,0.000e+00
8.687e-01,0.000e+00
8.732e-01,0.000e+00
8.777e-01,0.000e+00
8.822e-01,0.000e+00
8.867e-01,0.000e+00
8.912e-01,0.000e+00
8.957e-01,0.000e+00
