transmittance,probability_density
1.626e-01,0.000e+00
1.668e-01,0.000e+00
1.710e-01,0.000e+00
1.752e-01,0.000e+00
1.794e-01,0.000e+00
1.836e-01,0.000e+00
1.878e-01,0.000e+00
1.920e-01,0.000e+00
1.962e-01,0.000e+00
2.004e-01,0.000e+00
2.046e-01,0.000e+00
2.088e-01,0.000e+00
2.130e-01,0.000e+00
2.172e-01,0.000e+00
2.214e-01,0.000e+00
2.256e-01,0.000e+00
2.298e-01,0.000e+00
2.340e-01,0.000e+00
2.382e-01,0.000e+00
2.424e-01,0.000e+00
2.466e-01,0.000e+00
2.508e-01,0.000e+00
2.550e-01,0.000e+00
2.592e-01,0.000e+00
2.634e-01,0.000e+00
2.676e-01,0.000e+00
2.718e-01,0.000e+00
2.760e-01,0.000e+00
2.802e-01,0.000e+00
2.844e-01,0.000e+00
2.886e-01,0.000e+00
2.928e-01,0.000e+00
2.970e-01,0.000e+00
3.012e-01,0.000e+00
3.054e-01,0.000e+00
3.095e-01,0.000e+00
3.137e-01,0.000e+00
3.179e-01,2.382e-03
3.221e-01,0.000e+00
3.263e-01,0.000e+00
3.305e-01,0.000e+00
3.347e-01,4.765e-03
3.389e-01,0.000e+00
3.431e-01,0.000e+00
3.473e-01,2.382e-03
3.515e-01,2.382e-03
3.557e-01,0.000e+00
3.599e-01,0.000e+00
3.641e-01,2.382e-03
3.683e-01,0.000e+00
3.725e-01,2.382e-03
3.767e-01,4.765e-03
3.809e-01,2.382e-03
3.851e-01,0.000e+00
3.893e-01,4.765e-03
3.935e-01,7.147e-03
3.977e-01,2.382e-03
4.019e-01,2.382e-03
4.061e-01,2.382e-03
4.103e-01,2.382e-03
4.145e-01,0.000e+00
4.187e-01,2.382e-03
4.229e-01,0.000e+00
4.271e-01,0.000e+00
4.313e-01,4.765e-03
4.355e-01,2.382e-03
4.397e-01,2.382e-03
4.439e-01,2.382e-03
4.481e-01,4.765e-03
4.523e-01,9.530e-03
4.565e-01,2.382e-03
4.607e-01,1.191e-02
4.648e-01,1.191e-02
4.690e-01,4.765e-03
4.732e-01,4.765e-03
4.774e-01,7.147e-03
4.816e-01,1.429e-02
4.858e-01,1.668e-02
4.900e-01,2.144e-02
4.942e-01,1.668e-02
4.984e-01,1.429e-02
5.026e-01,1.906e-02
5.068e-01,2.382e-02
5.110e-01,1.906e-02
5.152e-01,3.812e-02
5.194e-01,3.335e-02
5.236e-01,3.335e-02
5.278e-01,3.574e-02
5.320e-01,2.859e-02
5.362e-01,4.527e-02
5.404e-01,2.859e-02
5.446e-01,4.527e-02
5.488e-01,4.765e-02
5.530e-01,4.765e-02
5.572e-01,5.956e-02
5.614e-01,5.480e-02
5.656e-01,6.433e-02
5.698e-01,5.003e-02
5.740e-01,6.194e-02
5.782e-01,7.624e-02
5.824e-01,8.339e-02
5.866e-01,8.100e-02
5.908e-01,5.241e-02
5.950e-01,9.530e-02
5.992e-01,8.577e-02
6.034e-01,1.048e-01
6.076e-01,1.215e-01
6.118e-01,1.453e-01
6.159e-01,1.715e-01
6.201e-01,1.287e-01
6.243e-01,1.763e-01
6.285e-01,1.549e-01
6.327e-01,1.787e-01
6.369e-01,1.572e-01
6.411e-01,2.549e-01
6.453e-01,2.359e-01
6.495e-01,2.311e-01
6.537e-01,2.406e-01
6.579e-01,2.525e-01
6.621e-01,3.002e-01
6.663e-01,3.288e-01
6.705e-01,3.502e-01
6.747e-01,3.288e-01
6.789e-01,3.812e-01
6.831e-01,3.169e-01
6.873e-01,4.336e-01
6.915e-01,4.884e-01
6.957e-01,4.884e-01
6.999e-01,4.765e-01
7.041e-01,5.861e-01
7.083e-01,5.885e-01
7.125e-01,6.314e-01
7.167e-01,5.980e-01
7.209e-01,6.742e-01
7.251e-01,7.672e-01
7.293e-01,7.719e-01
7.335e-01,7.672e-01
7.377e-01,8.577e-01
7.419e-01,9.030e-01
7.461e-01,9.625e-01
7.503e-01,1.179e+00
7.545e-01,1.148e+00
7.587e-01,1.260e+00
7.629e-01,1.287e+00
7.671e-01,1.372e+00
7.712e-01,1.418e+00
7.754e-01,1.584e+00
7.796e-01,1.625e+00
7.838e-01,1.777e+00
7.880e-01,1.966e+00
7.922e-01,1.975e+00
7.964e-01,1.968e+00
8.006e-01,2.097e+00
8.048e-01,2.499e+00
8.090e-01,2.394e+00
8.132e-01,2.437e+00
8.174e-01,2.745e+00
8.216e-01,2.909e+00
8.258e-01,3.004e+00
8.300e-01,3.159e+00
8.342e-01,3.378e+00
8.384e-01,3.702e+00
8.426e-01,3.755e+00
8.468e-01,3.979e+00
8.510e-01,4.148e+00
8.552e-01,4.305e+00
8.594e-01,4.243e+00
8.636e-01,4.417e+00
8.678e-01,4.794e+00
8.720e-01,4.953e+00
8.762e-01,5.182e+00
8.804e-01,5.451e+00
8.846e-01,5.608e+00
8.888e-01,5.770e+00
8.930e-01,5.887e+00
8.972e-01,6.018e+00
9.014e-01,5.959e+00
9.056e-01,6.376e+00
9.098e-01,6.411e+00
9.140e-01,6.223e+00
9.182e-01,6.573e+00
9.224e-01,6.576e+00
9.265e-01,6.454e+00
9.307e-01,6.371e+00
9.349e-01,6.364e+00
9.391e-01,6.144e+00
9.433e-01,5.844e+00
9.475e-01,5.677e+00
9.517e-01,5.475e+00
9.559e-01,5.344e+00
9.601e-01,4.689e+00
9.643e-01,3.993e+00
9.685e-01,3.598e+00
9.727e-01,2.952e+00
9.769e-01,2.371e+00
9.811e-01,1.756e+00
9.853e-01,1.053e+00
9.895e-01,5.361e-01
9.937e-01,1.429e-01
9.979e-01,7.147e-03
