transmittance,probability_density
2.525e-01,0.000e+00
2.563e-01,0.000e+00
2.600e-01,0.000e+00
2.638e-01,0.000e+00
2.675e-01,0.000e+00
2.712e-01,0.000e+00
2.750e-01,0.000e+00
2.787e-01,0.000e+00
2.825e-01,0.000e+00
2.862e-01,0.000e+00
2.900e-01,0.000e+00
2.937e-01,0.000e+00
2.975e-01,0.000e+00
3.012e-01,0.000e+00
3.050e-01,0.000e+00
3.087e-01,0.000e+00
3.125e-01,0.000e+00
3.162e-01,0.000e+00
3.200e-01,0.000e+00
3.237e-01,0.000e+00
3.274e-01,0.000e+00
3.312e-01,0.000e+00
3.349e-01,0.000e+00
3.387e-01,0.000e+00
3.424e-01,0.000e+00
3.462e-01,0.000e+00
3.499e-01,0.000e+00
3.537e-01,0.000e+00
3.574e-01,0.000e+00
3.612e-01,0.000e+00
3.649e-01,0.000e+00
3.687e-01,0.000e+00
3.724e-01,0.000e+00
3.762e-01,0.000e+00
3.799e-01,0.000e+00
3.836e-01,0.000e+00
3.874e-01,0.000e+00
3.911e-01,0.000e+00
3.949e-01,0.000e+00
3.986e-01,0.000e+00
4.024e-01,0.000e+00
4.061e-01,0.000e+00
4.099e-01,0.000e+00
4.136e-01,0.000e+00
4.174e-01,0.000e+00
4.211e-01,0.000e+00
4.249e-01,0.000e+00
4.286e-01,0.000e+00
4.324e-01,0.000e+00
4.361e-01,0.000e+00
4.399e-01,0.000e+00
4.436e-01,0.000e+00
4.473e-01,0.000e+00
4.511e-01,0.000e+00
4.548e-01,2.669e-03
4.586e-01,0.000e+00
4.623e-01,0.000e+00
4.661e-01,0.000e+00
4.698e-01,0.000e+00
4.736e-01,0.000e+00
4.773e-01,0.000e+00
4.811e-01,0.000e+00
4.848e-01,0.000e+00
4.886e-01,0.000e+00
4.923e-01,0.000e+00
4.961e-01,0.000e+00
4.998e-01,0.000e+00
5.035e-01,0.000e+00
5.073e-01,0.000e+00
5.110e-01,0.000e+00
5.148e-01,2.669e-03
5.185e-01,0.000e+00
5.223e-01,2.669e-03
5.260e-01,0.000e+00
5.298e-01,0.000e+00
5.335e-01,0.000e+00
5.373e-01,0.000e+00
5.410e-01,0.000e+00
5.448e-01,2.669e-03
5.485e-01,0.000e+00
5.523e-01,0.000e+00
5.560e-01,0.000e+00
5.597e-01,2.669e-03
5.635e-01,0.000e+00
5.672e-01,2.669e-03
5.710e-01,2.669e-03
5.747e-01,0.000e+00
5.785e-01,0.000e+00
5.822e-01,0.000e+00
5.860e-01,0.000e+00
5.897e-01,2.669e-03
5.935e-01,2.669e-03
5.972e-01,2.669e-03
6.010e-01,0.000e+00
6.047e-01,0.000e+00
6.085e-01,0.000e+00
6.122e-01,0.000e+00
6.160e-01,8.007e-03
6.197e-01,2.669e-03
6.234e-01,5.338e-03
6.272e-01,0.000e+00
6.309e-01,2.669e-03
6.347e-01,2.669e-03
6.384e-01,2.669e-03
6.422e-01,5.338e-03
6.459e-01,8.007e-03
6.497e-01,2.669e-03
6.534e-01,0.000e+00
6.572e-01,2.669e-03
6.609e-01,5.338e-03
6.647e-01,2.669e-03
6.684e-01,1.334e-02
6.722e-01,5.338e-03
6.759e-01,1.334e-02
6.796e-01,1.068e-02
6.834e-01,1.334e-02
6.871e-01,1.068e-02
6.909e-01,1.334e-02
6.946e-01,1.068e-02
6.984e-01,2.135e-02
7.021e-01,1.868e-02
7.059e-01,2.936e-02
7.096e-01,1.334e-02
7.134e-01,3.470e-02
7.171e-01,1.868e-02
7.209e-01,2.669e-02
7.246e-01,2.402e-02
7.284e-01,1.334e-02
7.321e-01,5.071e-02
7.358e-01,2.936e-02
7.396e-01,5.338e-02
7.433e-01,3.470e-02
7.471e-01,6.672e-02
7.508e-01,2.936e-02
7.546e-01,6.139e-02
7.583e-01,5.872e-02
7.621e-01,8.807e-02
7.658e-01,8.807e-02
7.696e-01,7.473e-02
7.733e-01,8.007e-02
7.771e-01,1.121e-01
7.808e-01,1.041e-01
7.846e-01,1.121e-01
7.883e-01,1.041e-01
7.921e-01,1.148e-01
7.958e-01,1.628e-01
7.995e-01,1.761e-01
8.033e-01,1.681e-01
8.070e-01,2.215e-01
8.108e-01,1.788e-01
8.145e-01,2.269e-01
8.183e-01,2.242e-01
8.220e-01,2.669e-01
8.258e-01,2.749e-01
8.295e-01,3.443e-01
8.333e-01,3.203e-01
8.370e-01,3.576e-01
8.408e-01,3.630e-01
8.445e-01,4.591e-01
8.483e-01,4.083e-01
8.520e-01,4.964e-01
8.557e-01,5.765e-01
8.595e-01,7.179e-01
8.632e-01,5.818e-01
8.670e-01,7.179e-01
8.707e-01,8.033e-01
8.745e-01,9.101e-01
8.782e-01,9.101e-01
8.820e-01,1.153e+00
8.857e-01,1.118e+00
8.895e-01,1.415e+00
8.932e-01,1.567e+00
8.970e-01,1.625e+00
9.007e-01,1.719e+00
9.045e-01,2.092e+00
9.082e-01,2.207e+00
9.119e-01,2.450e+00
9.157e-01,2.722e+00
9.194e-01,2.872e+00
9.232e-01,3.550e+00
9.269e-01,3.833e+00
9.307e-01,3.939e+00
9.344e-01,4.412e+00
9.382e-01,4.804e+00
9.419e-01,5.541e+00
9.457e-01,6.221e+00
9.494e-01,7.110e+00
9.532e-01,7.756e+00
9.569e-01,8.882e+00
9.607e-01,9.838e+00
9.644e-01,1.095e+01
9.682e-01,1.274e+01
9.719e-01,1.439e+01
9.756e-01,1.553e+01
9.794e-01,1.713e+01
9.831e-01,1.932e+01
9.869e-01,2.120e+01
9.906e-01,2.249e+01
9.944e-01,2.182e+01
9.981e-01,1.299e+01
