transmittance,probability_density
3.152e-01,
3.186e-01,
3.220e-01,
3.255e-01,
3.289e-01,
3.323e-01,
3.358e-01,
3.392e-01,
3.426e-01,
3.461e-01,
3.495e-01,
3.529e-01,
3.564e-01,
3.598e-01,
3.632e-01,
3.667e-01,
3.701e-01,
3.735e-01,
3.770e-01,
3.804e-01,
3.838e-01,
3.873e-01,
3.907e-01,
3.941e-01,
3.976e-01,
4.010e-01,
4.044e-01,
4.079e-01,
4.113e-01,
4.147e-01,
4.182e-01,
4.216e-01,
4.250e-01,
4.285e-01,
4.319e-01,
4.353e-01,
4.387e-01,
4.422e-01,
4.456e-01,
4.490e-01,
4.525e-01,
4.559e-01,
4.593e-01,
4.628e-01,
4.662e-01,
4.696e-01,
4.731e-01,
4.765e-01,
4.799e-01,
4.834e-01,
4.868e-01,
4.902e-01,
4.937e-01,
4.971e-01,
5.005e-01,
5.040e-01,
5.074e-01,
5.108e-01,
5.143e-01,
5.177e-01,
5.211e-01,
5.246e-01,
5.280e-01,
5.314e-01,
5.349e-01,
5.383e-01,
5.417e-01,
5.452e-01,
5.486e-01,
5.520e-01,
5.555e-01,
5.589e-01,
5.623e-01,
5.658e-01,
5.692e-01,
5.726e-01,
5.761e-01,
5.795e-01,
5.829e-01,
5.864e-01,
5.898e-01,
5.932e-01,
5.967e-01,
6.001e-01,
6.035e-01,
6.070e-01,
6.104e-01,
6.138e-01,
6.173e-01,
6.207e-01,
6.241e-01,
6.275e-01,
6.310e-01,
6.344e-01,
6.378e-01,
6.413e-01,
6.447e-01,
6.481e-01,
6.516e-01,
6.550e-01,
6.584e-01,
6.619e-01,
6.653e-01,
6.687e-01,
6.722e-01,
6.756e-01,
6.790e-01,
6.825e-01,
6.859e-01,
6.893e-01,
6.928e-01,
6.962e-01,
6.996e-01,
7.031e-01,
7.065e-01,
7.099e-01,
7.134e-01,
7.168e-01,
7.202e-01,
7.237e-01,
7.271e-01,
7.305e-01,
7.340e-01,
7.374e-01,
7.408e-01,
7.443e-01,
7.477e-01,
7.511e-01,
7.546e-01,
7.580e-01,
7.614e-01,
7.649e-01,
7.683e-01,
7.717e-01,
7.752e-01,
7.786e-01,
7.820e-01,
7.855e-01,
7.889e-01,
7.923e-01,
7.958e-01,
7.992e-01,
8.026e-01,
8.061e-01,
8.095e-01,
8.129e-01,
8.163e-01,
8.198e-01,
8.232e-01,
8.266e-01,
8.301e-01,
8.335e-01,
8.369e-01,
8.404e-01,
8.438e-01,
8.472e-01,
8.507e-01,
8.541e-01,
8.575e-01,
8.610e-01,
8.644e-01,
8.678e-01,
8.713e-01,
8.747e-01,
8.781e-01,
8.816e-01,
8.850e-01,
8.884e-01,
8.919e-01,
8.953e-01,
8.987e-01,
9.022e-01,
9.056e-01,
9.090e-01,
9.125e-01,
9.159e-01,
9.193e-01,
9.228e-01,
9.262e-01,
9.296e-01,
9.331e-01,
9.365e-01,
9.399e-01,
9.434e-01,
9.468e-01,
9.502e-01,
9.537e-01,
9.571e-01,
9.605e-01,
9.640e-01,
9.674e-01,
9.708e-01,
9.743e-01,
9.777e-01,
9.811e-01,
9.846e-01,
9.880e-01,
9.914e-01,
9.949e-01,
9.983e-01,
