transmittance,probability_density
1.869e-01,
1.910e-01,
1.951e-01,
1.992e-01,
2.032e-01,
2.073e-01,
2.114e-01,
2.155e-01,
2.196e-01,
2.236e-01,
2.277e-01,
2.318e-01,
2.359e-01,
2.399e-01,
2.440e-01,
2.481e-01,
2.522e-01,
2.562e-01,
2.603e-01,
2.644e-01,
2.685e-01,
2.725e-01,
2.766e-01,
2.807e-01,
2.848e-01,
2.888e-01,
2.929e-01,
2.970e-01,
3.011e-01,
3.051e-01,
3.092e-01,
3.133e-01,
3.174e-01,
3.214e-01,
3.255e-01,
3.296e-01,
3.337e-01,
3.377e-01,
3.418e-01,
3.459e-01,
3.500e-01,
3.540e-01,
3.581e-01,
3.622e-01,
3.663e-01,
3.703e-01,
3.744e-01,
3.785e-01,
3.826e-01,
3.866e-01,
3.907e-01,
3.948e-01,
3.989e-01,
4.029e-01,
4.070e-01,
4.111e-01,
4.152e-01,
4.192e-01,
4.233e-01,
4.274e-01,
4.315e-01,
4.355e-01,
4.396e-01,
4.437e-01,
4.478e-01,
4.519e-01,
4.559e-01,
4.600e-01,
4.641e-01,
4.682e-01,
4.722e-01,
4.763e-01,
4.804e-01,
4.845e-01,
4.885e-01,
4.926e-01,
4.967e-01,
5.008e-01,
5.048e-01,
5.089e-01,
5.130e-01,
5.171e-01,
5.211e-01,
5.252e-01,
5.293e-01,
5.334e-01,
5.374e-01,
5.415e-01,
5.456e-01,
5.497e-01,
5.537e-01,
5.578e-01,
5.619e-01,
5.660e-01,
5.700e-01,
5.741e-01,
5.782e-01,
5.823e-01,
5.863e-01,
5.904e-01,
5.945e-01,
5.986e-01,
6.026e-01,
6.067e-01,
6.108e-01,
6.149e-01,
6.189e-01,
6.230e-01,
6.271e-01,
6.312e-01,
6.352e-01,
6.393e-01,
6.434e-01,
6.475e-01,
6.515e-01,
6.556e-01,
6.597e-01,
6.638e-01,
6.679e-01,
6.719e-01,
6.760e-01,
6.801e-01,
6.842e-01,
6.882e-01,
6.923e-01,
6.964e-01,
7.005e-01,
7.045e-01,
7.086e-01,
7.127e-01,
7.168e-01,
7.208e-01,
7.249e-01,
7.290e-01,
7.331e-01,
7.371e-01,
7.412e-01,
7.453e-01,
7.494e-01,
7.534e-01,
7.575e-01,
7.616e-01,
7.657e-01,
7.697e-01,
7.738e-01,
7.779e-01,
7.820e-01,
7.860e-01,
7.901e-01,
7.942e-01,
7.983e-01,
8.023e-01,
8.064e-01,
8.105e-01,
8.146e-01,
8.186e-01,
8.227e-01,
8.268e-01,
8.309e-01,
8.349e-01,
8.390e-01,
8.431e-01,
8.472e-01,
8.512e-01,
8.553e-01,
8.594e-01,
8.635e-01,
8.675e-01,
8.716e-01,
8.757e-01,
8.798e-01,
8.838e-01,
8.879e-01,
8.920e-01,
8.961e-01,
9.002e-01,
9.042e-01,
9.083e-01,
9.124e-01,
9.165e-01,
9.205e-01,
9.246e-01,
9.287e-01,
9.328e-01,
9.368e-01,
9.409e-01,
9.450e-01,
9.491e-01,
9.531e-01,
9.572e-01,
9.613e-01,
9.654e-01,
9.694e-01,
9.735e-01,
9.776e-01,
9.817e-01,
9.857e-01,
9.898e-01,
9.939e-01,
9.980e-01,
