transmittance,probability_density
1.304e-03,0.000e+00
3.913e-03,0.000e+00
6.522e-03,0.000e+00
9.130e-03,0.000e+00
1.174e-02,0.000e+00
1.435e-02,0.000e+00
1.696e-02,0.000e+00
1.956e-02,0.000e+00
2.217e-02,0.000e+00
2.478e-02,0.000e+00
2.739e-02,0.000e+00
3.000e-02,0.000e+00
3.261e-02,0.000e+00
3.522e-02,0.000e+00
3.783e-02,0.000e+00
4.043e-02,0.000e+00
4.304e-02,0.000e+00
4.565e-02,0.000e+00
4.826e-02,0.000e+00
5.087e-02,0.000e+00
5.348e-02,1.866e-03
5.609e-02,9.332e-04
5.869e-02,9.332e-04
6.130e-02,1.866e-03
6.391e-02,5.599e-03
6.652e-02,6.533e-03
6.913e-02,7.466e-03
7.174e-02,1.307e-02
7.435e-02,2.333e-02
7.696e-02,2.893e-02
7.956e-02,5.133e-02
8.217e-02,5.506e-02
8.478e-02,1.148e-01
8.739e-02,1.269e-01
9.000e-02,1.689e-01
9.261e-02,2.034e-01
9.522e-02,2.501e-01
9.782e-02,3.397e-01
1.004e-01,4.153e-01
1.030e-01,5.198e-01
1.057e-01,6.747e-01
1.083e-01,7.382e-01
1.109e-01,9.771e-01
1.135e-01,1.133e+00
1.161e-01,1.310e+00
1.187e-01,1.600e+00
1.213e-01,1.827e+00
1.239e-01,1.998e+00
1.265e-01,2.302e+00
1.291e-01,2.655e+00
1.317e-01,2.984e+00
1.343e-01,3.254e+00
1.370e-01,3.682e+00
1.396e-01,4.110e+00
1.422e-01,4.299e+00
1.448e-01,4.622e+00
1.474e-01,5.108e+00
1.500e-01,5.670e+00
1.526e-01,5.898e+00
1.552e-01,6.223e+00
1.578e-01,6.522e+00
1.604e-01,6.866e+00
1.630e-01,7.098e+00
1.656e-01,7.483e+00
1.683e-01,7.667e+00
1.709e-01,7.971e+00
1.735e-01,8.235e+00
1.761e-01,8.305e+00
1.787e-01,8.545e+00
1.813e-01,8.890e+00
1.839e-01,8.761e+00
1.865e-01,8.763e+00
1.891e-01,8.929e+00
1.917e-01,8.868e+00
1.943e-01,8.794e+00
1.970e-01,8.648e+00
1.996e-01,8.673e+00
2.022e-01,8.451e+00
2.048e-01,8.303e+00
2.074e-01,8.287e+00
2.100e-01,8.583e+00
2.126e-01,7.845e+00
2.152e-01,7.723e+00
2.178e-01,7.559e+00
2.204e-01,7.118e+00
2.230e-01,7.005e+00
2.256e-01,6.827e+00
2.283e-01,6.573e+00
2.309e-01,6.223e+00
2.335e-01,6.052e+00
2.361e-01,5.672e+00
2.387e-01,5.378e+00
2.413e-01,5.386e+00
2.439e-01,4.928e+00
2.465e-01,4.587e+00
2.491e-01,4.316e+00
2.517e-01,4.251e+00
2.543e-01,3.906e+00
2.570e-01,3.540e+00
2.596e-01,3.400e+00
2.622e-01,3.220e+00
2.648e-01,3.012e+00
2.674e-01,2.750e+00
2.700e-01,2.527e+00
2.726e-01,2.502e+00
2.752e-01,2.159e+00
2.778e-01,1.965e+00
2.804e-01,1.914e+00
2.830e-01,1.646e+00
2.856e-01,1.602e+00
2.883e-01,1.436e+00
2.909e-01,1.357e+00
2.935e-01,1.223e+00
2.961e-01,1.145e+00
2.987e-01,1.076e+00
3.013e-01,9.575e-01
3.039e-01,8.548e-01
3.065e-01,7.736e-01
3.091e-01,7.419e-01
3.117e-01,6.262e-01
3.143e-01,6.113e-01
3.170e-01,5.319e-01
3.196e-01,4.573e-01
3.222e-01,4.647e-01
3.248e-01,4.004e-01
3.274e-01,3.369e-01
3.300e-01,3.369e-01
3.326e-01,2.538e-01
3.352e-01,2.650e-01
3.378e-01,2.174e-01
3.404e-01,1.978e-01
3.430e-01,1.661e-01
3.456e-01,1.596e-01
3.483e-01,1.400e-01
3.509e-01,1.157e-01
3.535e-01,9.332e-02
3.561e-01,9.052e-02
3.587e-01,9.146e-02
3.613e-01,7.466e-02
3.639e-01,6.346e-02
3.665e-01,6.253e-02
3.691e-01,5.226e-02
3.717e-01,4.759e-02
3.743e-01,3.733e-02
3.769e-01,2.893e-02
3.796e-01,2.706e-02
3.822e-01,2.893e-02
3.848e-01,2.426e-02
3.874e-01,2.240e-02
3.900e-01,8.399e-03
3.926e-01,1.027e-02
3.952e-01,1.027e-02
3.978e-01,1.493e-02
4.004e-01,6.533e-03
4.030e-01,7.466e-03
4.056e-01,1.213e-02
4.083e-01,1.027e-02
4.109e-01,3.733e-03
4.135e-01,5.599e-03
4.161e-01,3.733e-03
4.187e-01,5.599e-03
4.213e-01,3.733e-03
4.239e-01,1.866e-03
4.265e-01,1.866e-03
4.291e-01,1.866e-03
4.317e-01,1.866e-03
4.343e-01,1.866e-03
4.369e-01,3.733e-03
4.396e-01,9.332e-04
4.422e-01,2.800e-03
4.448e-01,9.332e-04
4.474e-01,9.332e-04
4.500e-01,0.000e+00
4.526e-01,0.000e+00
4.552e-01,0.000e+00
4.578e-01,9.332e-04
4.604e-01,0.000e+00
4.630e-01,0.000e+00
4.656e-01,9.332e-04
4.683e-01,0.000e+00
4.709e-01,0.000e+00
4.735e-01,9.332e-04
4.761e-01,0.000e+00
4.787e-01,0.000e+00
4.813e-01,0.000e+00
4.839e-01,0.000e+00
4.865e-01,0.000e+00
4.891e-01,0.000e+00
4.917e-01,0.000e+00
4.943e-01,0.000e+00
4.969e-01,0.000e+00
4.996e-01,0.000e+00
5.022e-01,0.000e+00
5.048e-01,0.000e+00
5.074e-01,0.000e+00
5.100e-01,0.000e+00
5.126e-01,0.000e+00
5.152e-01,0.000e+00
5.178e-01,0.000e+00
5.204e-01,0.000e+00
