transmittance,probability_density
1.510e-03,0.000e+00
4.529e-03,0.000e+00
7.549e-03,0.000e+00
1.057e-02,0.000e+00
1.359e-02,0.000e+00
1.661e-02,0.000e+00
1.963e-02,0.000e+00
2.265e-02,0.000e+00
2.567e-02,0.000e+00
2.869e-02,0.000e+00
3.170e-02,0.000e+00
3.472e-02,0.000e+00
3.774e-02,0.000e+00
4.076e-02,0.000e+00
4.378e-02,0.000e+00
4.680e-02,0.000e+00
4.982e-02,0.000e+00
5.284e-02,0.000e+00
5.586e-02,0.000e+00
5.888e-02,0.000e+00
6.190e-02,0.000e+00
6.492e-02,0.000e+00
6.794e-02,0.000e+00
7.096e-02,1.612e-03
7.398e-02,8.062e-04
7.700e-02,8.062e-04
8.002e-02,1.612e-03
8.304e-02,4.031e-03
8.606e-02,4.031e-03
8.908e-02,7.256e-03
9.209e-02,9.675e-03
9.511e-02,1.935e-02
9.813e-02,2.257e-02
1.012e-01,3.144e-02
1.042e-01,4.031e-02
1.072e-01,6.450e-02
1.102e-01,1.032e-01
1.132e-01,1.016e-01
1.163e-01,1.580e-01
1.193e-01,1.733e-01
1.223e-01,2.201e-01
1.253e-01,2.999e-01
1.283e-01,3.539e-01
1.313e-01,4.450e-01
1.344e-01,5.208e-01
1.374e-01,6.434e-01
1.404e-01,8.167e-01
1.434e-01,8.715e-01
1.464e-01,1.097e+00
1.495e-01,1.286e+00
1.525e-01,1.428e+00
1.555e-01,1.682e+00
1.585e-01,1.891e+00
1.615e-01,2.049e+00
1.646e-01,2.424e+00
1.676e-01,2.619e+00
1.706e-01,2.983e+00
1.736e-01,3.361e+00
1.766e-01,3.474e+00
1.797e-01,3.729e+00
1.827e-01,4.137e+00
1.857e-01,4.628e+00
1.887e-01,4.701e+00
1.917e-01,5.112e+00
1.948e-01,5.315e+00
1.978e-01,5.574e+00
2.008e-01,6.110e+00
2.038e-01,6.111e+00
2.068e-01,6.390e+00
2.099e-01,6.729e+00
2.129e-01,6.784e+00
2.159e-01,7.146e+00
2.189e-01,7.096e+00
2.219e-01,7.373e+00
2.250e-01,7.313e+00
2.280e-01,7.494e+00
2.310e-01,7.712e+00
2.340e-01,7.698e+00
2.370e-01,7.576e+00
2.401e-01,7.544e+00
2.431e-01,7.446e+00
2.461e-01,7.351e+00
2.491e-01,7.465e+00
2.521e-01,7.110e+00
2.551e-01,7.139e+00
2.582e-01,7.062e+00
2.612e-01,6.863e+00
2.642e-01,6.814e+00
2.672e-01,6.481e+00
2.702e-01,6.213e+00
2.733e-01,6.016e+00
2.763e-01,5.800e+00
2.793e-01,5.804e+00
2.823e-01,5.410e+00
2.853e-01,5.126e+00
2.884e-01,4.939e+00
2.914e-01,4.559e+00
2.944e-01,4.613e+00
2.974e-01,4.200e+00
3.004e-01,3.944e+00
3.035e-01,3.864e+00
3.065e-01,3.563e+00
3.095e-01,3.412e+00
3.125e-01,3.078e+00
3.155e-01,2.886e+00
3.186e-01,2.720e+00
3.216e-01,2.549e+00
3.246e-01,2.494e+00
3.276e-01,2.121e+00
3.306e-01,2.039e+00
3.337e-01,1.750e+00
3.367e-01,1.737e+00
3.397e-01,1.607e+00
3.427e-01,1.407e+00
3.457e-01,1.348e+00
3.488e-01,1.239e+00
3.518e-01,1.159e+00
3.548e-01,1.071e+00
3.578e-01,9.514e-01
3.608e-01,8.578e-01
3.638e-01,8.143e-01
3.669e-01,6.885e-01
3.699e-01,5.878e-01
3.729e-01,6.289e-01
3.759e-01,5.047e-01
3.789e-01,5.055e-01
3.820e-01,4.330e-01
3.850e-01,3.902e-01
3.880e-01,3.475e-01
3.910e-01,2.991e-01
3.940e-01,2.822e-01
3.971e-01,2.507e-01
4.001e-01,2.064e-01
4.031e-01,1.903e-01
4.061e-01,1.798e-01
4.091e-01,1.403e-01
4.122e-01,1.419e-01
4.152e-01,1.169e-01
4.182e-01,1.040e-01
4.212e-01,7.659e-02
4.242e-01,7.659e-02
4.273e-01,7.256e-02
4.303e-01,6.531e-02
4.333e-01,5.321e-02
4.363e-01,4.273e-02
4.393e-01,4.031e-02
4.424e-01,3.386e-02
4.454e-01,3.225e-02
4.484e-01,2.419e-02
4.514e-01,2.580e-02
4.544e-01,1.774e-02
4.575e-01,1.371e-02
4.605e-01,1.129e-02
4.635e-01,8.062e-03
4.665e-01,1.371e-02
4.695e-01,9.675e-03
4.726e-01,8.062e-03
4.756e-01,5.644e-03
4.786e-01,1.048e-02
4.816e-01,6.450e-03
4.846e-01,5.644e-03
4.876e-01,0.000e+00
4.907e-01,6.450e-03
4.937e-01,4.837e-03
4.967e-01,1.612e-03
4.997e-01,1.612e-03
5.027e-01,1.612e-03
5.058e-01,1.612e-03
5.088e-01,8.062e-04
5.118e-01,2.419e-03
5.148e-01,1.612e-03
5.178e-01,8.062e-04
5.209e-01,8.062e-04
5.239e-01,8.062e-04
5.269e-01,8.062e-04
5.299e-01,0.000e+00
5.329e-01,0.000e+00
5.360e-01,8.062e-04
5.390e-01,0.000e+00
5.420e-01,0.000e+00
5.450e-01,0.000e+00
5.480e-01,8.062e-04
5.511e-01,0.000e+00
5.541e-01,0.000e+00
5.571e-01,0.000e+00
5.601e-01,0.000e+00
5.631e-01,0.000e+00
5.662e-01,0.000e+00
5.692e-01,0.000e+00
5.722e-01,0.000e+00
5.752e-01,0.000e+00
5.782e-01,0.000e+00
5.813e-01,0.000e+00
5.843e-01,0.000e+00
5.873e-01,0.000e+00
5.903e-01,0.000e+00
5.933e-01,0.000e+00
5.964e-01,0.000e+00
5.994e-01,0.000e+00
6.024e-01,0.000e+00
