transmittance,probability_density
2.690e-01,0.000e+00
2.727e-01,0.000e+00
2.763e-01,0.000e+00
2.800e-01,0.000e+00
2.837e-01,0.000e+00
2.873e-01,0.000e+00
2.910e-01,0.000e+00
2.947e-01,6.644e-04
2.983e-01,6.644e-04
3.020e-01,0.000e+00
3.057e-01,0.000e+00
3.093e-01,6.644e-04
3.130e-01,0.000e+00
3.166e-01,0.000e+00
3.203e-01,0.000e+00
3.240e-01,1.993e-03
3.276e-01,6.644e-04
3.313e-01,1.329e-03
3.350e-01,6.644e-04
3.386e-01,1.993e-03
3.423e-01,1.329e-03
3.460e-01,3.322e-03
3.496e-01,1.329e-03
3.533e-01,3.986e-03
3.570e-01,6.644e-03
3.606e-01,3.322e-03
3.643e-01,1.063e-02
3.679e-01,5.315e-03
3.716e-01,1.462e-02
3.753e-01,1.196e-02
3.789e-01,1.727e-02
3.826e-01,1.595e-02
3.863e-01,3.322e-02
3.899e-01,2.458e-02
3.936e-01,3.256e-02
3.973e-01,3.455e-02
4.009e-01,4.651e-02
4.046e-01,6.578e-02
4.082e-01,6.245e-02
4.119e-01,6.910e-02
4.156e-01,8.305e-02
4.192e-01,1.030e-01
4.229e-01,1.242e-01
4.266e-01,1.302e-01
4.302e-01,1.395e-01
4.339e-01,1.674e-01
4.376e-01,1.867e-01
4.412e-01,2.319e-01
4.449e-01,2.651e-01
4.486e-01,2.518e-01
4.522e-01,3.262e-01
4.559e-01,3.734e-01
4.595e-01,3.967e-01
4.632e-01,4.611e-01
4.669e-01,5.242e-01
4.705e-01,5.581e-01
4.742e-01,6.172e-01
4.779e-01,6.916e-01
4.815e-01,7.514e-01
4.852e-01,8.518e-01
4.889e-01,9.315e-01
4.925e-01,1.042e+00
4.962e-01,1.136e+00
4.999e-01,1.145e+00
5.035e-01,1.323e+00
5.072e-01,1.504e+00
5.108e-01,1.531e+00
5.145e-01,1.698e+00
5.182e-01,1.832e+00
5.218e-01,1.841e+00
5.255e-01,2.072e+00
5.292e-01,2.185e+00
5.328e-01,2.402e+00
5.365e-01,2.622e+00
5.402e-01,2.671e+00
5.438e-01,2.959e+00
5.475e-01,3.084e+00
5.511e-01,3.183e+00
5.548e-01,3.408e+00
5.585e-01,3.648e+00
5.621e-01,3.633e+00
5.658e-01,3.749e+00
5.695e-01,4.087e+00
5.731e-01,4.167e+00
5.768e-01,4.288e+00
5.805e-01,4.456e+00
5.841e-01,4.659e+00
5.878e-01,4.802e+00
5.915e-01,4.716e+00
5.951e-01,5.114e+00
5.988e-01,5.166e+00
6.024e-01,5.111e+00
6.061e-01,5.419e+00
6.098e-01,5.473e+00
6.134e-01,5.339e+00
6.171e-01,5.522e+00
6.208e-01,5.395e+00
6.244e-01,5.667e+00
6.281e-01,5.630e+00
6.318e-01,5.548e+00
6.354e-01,5.563e+00
6.391e-01,5.601e+00
6.428e-01,5.321e+00
6.464e-01,5.474e+00
6.501e-01,5.466e+00
6.537e-01,5.228e+00
6.574e-01,5.103e+00
6.611e-01,5.101e+00
6.647e-01,4.854e+00
6.684e-01,4.696e+00
6.721e-01,4.604e+00
6.757e-01,4.558e+00
6.794e-01,4.427e+00
6.831e-01,4.095e+00
6.867e-01,4.068e+00
6.904e-01,3.889e+00
6.940e-01,3.659e+00
6.977e-01,3.569e+00
7.014e-01,3.375e+00
7.050e-01,3.029e+00
7.087e-01,2.949e+00
7.124e-01,2.796e+00
7.160e-01,2.494e+00
7.197e-01,2.482e+00
7.234e-01,2.230e+00
7.270e-01,2.131e+00
7.307e-01,1.959e+00
7.344e-01,1.740e+00
7.380e-01,1.637e+00
7.417e-01,1.514e+00
7.453e-01,1.371e+00
7.490e-01,1.310e+00
7.527e-01,1.122e+00
7.563e-01,9.760e-01
7.600e-01,8.637e-01
7.637e-01,7.926e-01
7.673e-01,7.103e-01
7.710e-01,6.013e-01
7.747e-01,5.800e-01
7.783e-01,4.950e-01
7.820e-01,4.099e-01
7.857e-01,3.528e-01
7.893e-01,2.963e-01
7.930e-01,2.651e-01
7.966e-01,2.086e-01
8.003e-01,1.987e-01
8.040e-01,1.641e-01
8.076e-01,1.362e-01
8.113e-01,1.129e-01
8.150e-01,9.700e-02
8.186e-01,7.906e-02
8.223e-01,5.913e-02
8.260e-01,5.116e-02
8.296e-01,4.917e-02
8.333e-01,3.056e-02
8.369e-01,2.591e-02
8.406e-01,2.259e-02
8.443e-01,1.661e-02
8.479e-01,1.063e-02
8.516e-01,9.302e-03
8.553e-01,3.986e-03
8.589e-01,5.315e-03
8.626e-01,3.322e-03
8.663e-01,3.322e-03
8.699e-01,1.329e-03
8.736e-01,2.658e-03
8.773e-01,6.644e-04
8.809e-01,0.000e+00
8.846e-01,6.644e-04
8.882e-01,0.000e+00
8.919e-01,0.000e+00
8.956e-01,0.000e+00
8.992e-01,0.000e+00
9.029e-01,0.000e+00
9.066e-01,0.000e+00
9.102e-01,0.000e+00
9.139e-01,0.000e+00
9.176e-01,0.000e+00
9.212e-01,0.000e+00
9.249e-01,0.000e+00
9.286e-01,0.000e+00
9.322e-01,0.000e+00
9.359e-01,0.000e+00
9.395e-01,0.000e+00
9.432e-01,0.000e+00
9.469e-01,0.000e+00
9.505e-01,0.000e+00
9.542e-01,0.000e+00
9.579e-01,0.000e+00
9.615e-01,0.000e+00
9.652e-01,0.000e+00
9.689e-01,0.000e+00
9.725e-01,0.000e+00
9.762e-01,0.000e+00
9.798e-01,0.000e+00
9.835e-01,0.000e+00
9.872e-01,0.000e+00
9.908e-01,0.000e+00
9.945e-01,0.000e+00
9.982e-01,0.000e+00
