transmittance,probability_density
2.371e-01,0.000e+00
2.409e-01,0.000e+00
2.447e-01,0.000e+00
2.486e-01,0.000e+00
2.524e-01,0.000e+00
2.562e-01,0.000e+00
2.600e-01,1.273e-03
2.639e-01,0.000e+00
2.677e-01,0.000e+00
2.715e-01,0.000e+00
2.753e-01,6.366e-04
2.792e-01,0.000e+00
2.830e-01,0.000e+00
2.868e-01,2.546e-03
2.906e-01,6.366e-04
2.945e-01,1.273e-03
2.983e-01,6.366e-04
3.021e-01,2.546e-03
3.059e-01,3.183e-03
3.098e-01,2.546e-03
3.136e-01,3.183e-03
3.174e-01,7.003e-03
3.212e-01,5.729e-03
3.250e-01,7.639e-03
3.289e-01,1.019e-02
3.327e-01,1.592e-02
3.365e-01,1.337e-02
3.403e-01,1.846e-02
3.442e-01,2.483e-02
3.480e-01,3.310e-02
3.518e-01,2.674e-02
3.556e-01,4.584e-02
3.595e-01,5.411e-02
3.633e-01,5.984e-02
3.671e-01,6.748e-02
3.709e-01,8.785e-02
3.748e-01,8.658e-02
3.786e-01,1.133e-01
3.824e-01,1.114e-01
3.862e-01,1.687e-01
3.901e-01,1.553e-01
3.939e-01,2.139e-01
3.977e-01,2.362e-01
4.015e-01,2.432e-01
4.054e-01,2.871e-01
4.092e-01,3.425e-01
4.130e-01,3.654e-01
4.168e-01,4.246e-01
4.207e-01,4.972e-01
4.245e-01,5.309e-01
4.283e-01,5.863e-01
4.321e-01,6.958e-01
4.359e-01,7.512e-01
4.398e-01,8.320e-01
4.436e-01,9.358e-01
4.474e-01,1.013e+00
4.512e-01,1.091e+00
4.551e-01,1.199e+00
4.589e-01,1.342e+00
4.627e-01,1.453e+00
4.665e-01,1.582e+00
4.704e-01,1.729e+00
4.742e-01,1.841e+00
4.780e-01,1.986e+00
4.818e-01,2.084e+00
4.857e-01,2.245e+00
4.895e-01,2.406e+00
4.933e-01,2.672e+00
4.971e-01,2.848e+00
5.010e-01,2.913e+00
5.048e-01,3.093e+00
5.086e-01,3.449e+00
5.124e-01,3.398e+00
5.163e-01,3.628e+00
5.201e-01,3.722e+00
5.239e-01,3.994e+00
5.277e-01,4.148e+00
5.315e-01,4.226e+00
5.354e-01,4.352e+00
5.392e-01,4.634e+00
5.430e-01,4.591e+00
5.468e-01,4.758e+00
5.507e-01,4.910e+00
5.545e-01,5.055e+00
5.583e-01,5.123e+00
5.621e-01,5.172e+00
5.660e-01,5.260e+00
5.698e-01,5.365e+00
5.736e-01,5.391e+00
5.774e-01,5.323e+00
5.813e-01,5.475e+00
5.851e-01,5.402e+00
5.889e-01,5.463e+00
5.927e-01,5.412e+00
5.966e-01,5.279e+00
6.004e-01,5.290e+00
6.042e-01,5.376e+00
6.080e-01,5.036e+00
6.119e-01,5.083e+00
6.157e-01,4.846e+00
6.195e-01,4.855e+00
6.233e-01,4.703e+00
6.272e-01,4.512e+00
6.310e-01,4.432e+00
6.348e-01,4.381e+00
6.386e-01,4.115e+00
6.424e-01,3.907e+00
6.463e-01,3.742e+00
6.501e-01,3.740e+00
6.539e-01,3.452e+00
6.577e-01,3.346e+00
6.616e-01,3.139e+00
6.654e-01,2.965e+00
6.692e-01,2.760e+00
6.730e-01,2.519e+00
6.769e-01,2.336e+00
6.807e-01,2.354e+00
6.845e-01,2.126e+00
6.883e-01,1.926e+00
6.922e-01,1.840e+00
6.960e-01,1.646e+00
6.998e-01,1.538e+00
7.036e-01,1.407e+00
7.075e-01,1.263e+00
7.113e-01,1.211e+00
7.151e-01,1.109e+00
7.189e-01,9.199e-01
7.228e-01,8.117e-01
7.266e-01,7.327e-01
7.304e-01,6.850e-01
7.342e-01,5.793e-01
7.380e-01,5.252e-01
7.419e-01,4.800e-01
7.457e-01,4.405e-01
7.495e-01,3.610e-01
7.533e-01,2.744e-01
7.572e-01,2.521e-01
7.610e-01,2.203e-01
7.648e-01,1.980e-01
7.686e-01,1.725e-01
7.725e-01,1.343e-01
7.763e-01,1.171e-01
7.801e-01,1.025e-01
7.839e-01,8.976e-02
7.878e-01,6.302e-02
7.916e-01,5.029e-02
7.954e-01,5.284e-02
7.992e-01,4.138e-02
8.031e-01,3.119e-02
8.069e-01,2.164e-02
8.107e-01,2.228e-02
8.145e-01,1.719e-02
8.184e-01,1.082e-02
8.222e-01,1.146e-02
8.260e-01,6.366e-03
8.298e-01,3.183e-03
8.337e-01,3.820e-03
8.375e-01,5.729e-03
8.413e-01,1.910e-03
8.451e-01,1.273e-03
8.489e-01,1.273e-03
8.528e-01,1.273e-03
8.566e-01,6.366e-04
8.604e-01,0.000e+00
8.642e-01,6.366e-04
8.681e-01,0.000e+00
8.719e-01,0.000e+00
8.757e-01,0.000e+00
8.795e-01,0.000e+00
8.834e-01,0.000e+00
8.872e-01,0.000e+00
8.910e-01,0.000e+00
8.948e-01,0.000e+00
8.987e-01,0.000e+00
9.025e-01,0.000e+00
9.063e-01,0.000e+00
9.101e-01,0.000e+00
9.140e-01,0.000e+00
9.178e-01,0.000e+00
9.216e-01,0.000e+00
9.254e-01,0.000e+00
9.293e-01,0.000e+00
9.331e-01,0.000e+00
9.369e-01,0.000e+00
9.407e-01,0.000e+00
9.446e-01,0.000e+00
9.484e-01,0.000e+00
9.522e-01,0.000e+00
9.560e-01,0.000e+00
9.598e-01,0.000e+00
9.637e-01,0.000e+00
9.675e-01,0.000e+00
9.713e-01,0.000e+00
9.751e-01,0.000e+00
9.790e-01,0.000e+00
9.828e-01,0.000e+00
9.866e-01,0.000e+00
9.904e-01,0.000e+00
9.943e-01,0.000e+00
9.981e-01,0.000e+00
