transmittance,probability_density
3.757e-01,0.000e+00
3.788e-01,0.000e+00
3.819e-01,0.000e+00
3.850e-01,0.000e+00
3.882e-01,0.000e+00
3.913e-01,0.000e+00
3.944e-01,0.000e+00
3.976e-01,0.000e+00
4.007e-01,0.000e+00
4.038e-01,0.000e+00
4.070e-01,0.000e+00
4.101e-01,7.779e-04
4.132e-01,0.000e+00
4.163e-01,7.779e-04
4.195e-01,0.000e+00
4.226e-01,0.000e+00
4.257e-01,0.000e+00
4.289e-01,0.000e+00
4.320e-01,7.779e-04
4.351e-01,0.000e+00
4.382e-01,7.779e-04
4.414e-01,0.000e+00
4.445e-01,7.779e-04
4.476e-01,7.779e-04
4.508e-01,7.779e-04
4.539e-01,7.779e-04
4.570e-01,1.556e-03
4.602e-01,0.000e+00
4.633e-01,1.556e-03
4.664e-01,2.334e-03
4.695e-01,7.779e-04
4.727e-01,1.556e-03
4.758e-01,3.112e-03
4.789e-01,3.112e-03
4.821e-01,9.335e-03
4.852e-01,6.223e-03
4.883e-01,7.779e-03
4.914e-01,7.779e-03
4.946e-01,9.335e-03
4.977e-01,1.400e-02
5.008e-01,1.167e-02
5.040e-01,1.400e-02
5.071e-01,2.100e-02
5.102e-01,1.867e-02
5.134e-01,2.178e-02
5.165e-01,2.256e-02
5.196e-01,2.723e-02
5.227e-01,4.123e-02
5.259e-01,3.967e-02
5.290e-01,5.212e-02
5.321e-01,4.823e-02
5.353e-01,5.212e-02
5.384e-01,7.779e-02
5.415e-01,8.401e-02
5.447e-01,8.868e-02
5.478e-01,9.490e-02
5.509e-01,1.260e-01
5.540e-01,1.299e-01
5.572e-01,1.540e-01
5.603e-01,1.517e-01
5.634e-01,1.789e-01
5.666e-01,2.093e-01
5.697e-01,1.968e-01
5.728e-01,2.645e-01
5.759e-01,2.793e-01
5.791e-01,3.073e-01
5.822e-01,3.788e-01
5.853e-01,3.749e-01
5.885e-01,4.411e-01
5.916e-01,4.800e-01
5.947e-01,5.142e-01
5.979e-01,6.099e-01
6.010e-01,6.449e-01
6.041e-01,6.869e-01
6.072e-01,7.654e-01
6.104e-01,8.471e-01
6.135e-01,9.125e-01
6.166e-01,9.669e-01
6.198e-01,1.100e+00
6.229e-01,1.167e+00
6.260e-01,1.229e+00
6.291e-01,1.421e+00
6.323e-01,1.403e+00
6.354e-01,1.574e+00
6.385e-01,1.721e+00
6.417e-01,1.836e+00
6.448e-01,1.947e+00
6.479e-01,2.063e+00
6.511e-01,2.294e+00
6.542e-01,2.338e+00
6.573e-01,2.657e+00
6.604e-01,2.895e+00
6.636e-01,2.994e+00
6.667e-01,3.029e+00
6.698e-01,3.427e+00
6.730e-01,3.466e+00
6.761e-01,3.604e+00
6.792e-01,3.780e+00
6.824e-01,3.966e+00
6.855e-01,4.121e+00
6.886e-01,4.299e+00
6.917e-01,4.506e+00
6.949e-01,4.684e+00
6.980e-01,4.843e+00
7.011e-01,5.132e+00
7.043e-01,5.318e+00
7.074e-01,5.468e+00
7.105e-01,5.459e+00
7.136e-01,5.813e+00
7.168e-01,5.855e+00
7.199e-01,6.047e+00
7.230e-01,6.068e+00
7.262e-01,6.467e+00
7.293e-01,6.355e+00
7.324e-01,6.213e+00
7.356e-01,6.705e+00
7.387e-01,6.488e+00
7.418e-01,6.557e+00
7.449e-01,6.738e+00
7.481e-01,6.541e+00
7.512e-01,6.527e+00
7.543e-01,6.440e+00
7.575e-01,6.615e+00
7.606e-01,6.415e+00
7.637e-01,6.257e+00
7.668e-01,6.411e+00
7.700e-01,6.061e+00
7.731e-01,6.001e+00
7.762e-01,5.844e+00
7.794e-01,5.665e+00
7.825e-01,5.368e+00
7.856e-01,5.392e+00
7.888e-01,5.286e+00
7.919e-01,4.891e+00
7.950e-01,4.636e+00
7.981e-01,4.544e+00
8.013e-01,4.180e+00
8.044e-01,3.969e+00
8.075e-01,3.763e+00
8.107e-01,3.541e+00
8.138e-01,3.280e+00
8.169e-01,3.049e+00
8.201e-01,2.893e+00
8.232e-01,2.619e+00
8.263e-01,2.399e+00
8.294e-01,2.257e+00
8.326e-01,1.988e+00
8.357e-01,1.820e+00
8.388e-01,1.588e+00
8.420e-01,1.484e+00
8.451e-01,1.270e+00
8.482e-01,1.095e+00
8.513e-01,1.049e+00
8.545e-01,8.253e-01
8.576e-01,7.273e-01
8.607e-01,6.418e-01
8.639e-01,5.017e-01
8.670e-01,4.154e-01
8.701e-01,3.617e-01
8.733e-01,3.213e-01
8.764e-01,2.256e-01
8.795e-01,2.264e-01
8.826e-01,1.657e-01
8.858e-01,1.385e-01
8.889e-01,9.801e-02
8.920e-01,6.923e-02
8.952e-01,7.079e-02
8.983e-01,4.434e-02
9.014e-01,2.878e-02
9.045e-01,3.034e-02
9.077e-01,1.789e-02
9.108e-01,8.557e-03
9.139e-01,8.557e-03
9.171e-01,3.112e-03
9.202e-01,3.112e-03
9.233e-01,7.779e-04
9.265e-01,1.556e-03
9.296e-01,0.000e+00
9.327e-01,0.000e+00
9.358e-01,0.000e+00
9.390e-01,0.000e+00
9.421e-01,0.000e+00
9.452e-01,0.000e+00
9.484e-01,0.000e+00
9.515e-01,0.000e+00
9.546e-01,0.000e+00
9.578e-01,0.000e+00
9.609e-01,0.000e+00
9.640e-01,0.000e+00
9.671e-01,0.000e+00
9.703e-01,0.000e+00
9.734e-01,0.000e+00
9.765e-01,0.000e+00
9.797e-01,0.000e+00
9.828e-01,0.000e+00
9.859e-01,0.000e+00
9.890e-01,0.000e+00
9.922e-01,0.000e+00
9.953e-01,0.000e+00
9.984e-01,0.000e+00
