transmittance,probability_density
5.122e-01,0.000e+00
5.147e-01,0.000e+00
5.171e-01,0.000e+00
5.196e-01,0.000e+00
5.220e-01,0.000e+00
5.244e-01,0.000e+00
5.269e-01,0.000e+00
5.293e-01,0.000e+00
5.318e-01,0.000e+00
5.342e-01,0.000e+00
5.367e-01,0.000e+00
5.391e-01,0.000e+00
5.416e-01,0.000e+00
5.440e-01,0.000e+00
5.465e-01,0.000e+00
5.489e-01,0.000e+00
5.513e-01,0.000e+00
5.538e-01,0.000e+00
5.562e-01,0.000e+00
5.587e-01,0.000e+00
5.611e-01,9.957e-04
5.636e-01,0.000e+00
5.660e-01,0.000e+00
5.685e-01,0.000e+00
5.709e-01,0.000e+00
5.733e-01,0.000e+00
5.758e-01,0.000e+00
5.782e-01,0.000e+00
5.807e-01,0.000e+00
5.831e-01,0.000e+00
5.856e-01,9.957e-04
5.880e-01,0.000e+00
5.905e-01,0.000e+00
5.929e-01,0.000e+00
5.954e-01,0.000e+00
5.978e-01,9.957e-04
6.002e-01,9.957e-04
6.027e-01,0.000e+00
6.051e-01,0.000e+00
6.076e-01,0.000e+00
6.100e-01,9.957e-04
6.125e-01,9.957e-04
6.149e-01,0.000e+00
6.174e-01,0.000e+00
6.198e-01,9.957e-04
6.222e-01,1.991e-03
6.247e-01,2.987e-03
6.271e-01,9.957e-04
6.296e-01,0.000e+00
6.320e-01,3.983e-03
6.345e-01,1.991e-03
6.369e-01,4.978e-03
6.394e-01,1.991e-03
6.418e-01,9.957e-03
6.443e-01,6.970e-03
6.467e-01,9.957e-03
6.491e-01,9.957e-03
6.516e-01,9.957e-03
6.540e-01,6.970e-03
6.565e-01,1.394e-02
6.589e-01,2.489e-02
6.614e-01,1.593e-02
6.638e-01,1.593e-02
6.663e-01,2.390e-02
6.687e-01,1.792e-02
6.711e-01,2.390e-02
6.736e-01,3.784e-02
6.760e-01,3.186e-02
6.785e-01,3.784e-02
6.809e-01,2.290e-02
6.834e-01,6.472e-02
6.858e-01,4.580e-02
6.883e-01,6.372e-02
6.907e-01,6.273e-02
6.932e-01,6.372e-02
6.956e-01,9.559e-02
6.980e-01,7.965e-02
7.005e-01,1.394e-01
7.029e-01,1.384e-01
7.054e-01,1.573e-01
7.078e-01,1.404e-01
7.103e-01,1.603e-01
7.127e-01,2.300e-01
7.152e-01,2.091e-01
7.176e-01,2.350e-01
7.200e-01,2.649e-01
7.225e-01,3.107e-01
7.249e-01,3.216e-01
7.274e-01,3.953e-01
7.298e-01,3.943e-01
7.323e-01,4.491e-01
7.347e-01,5.008e-01
7.372e-01,5.436e-01
7.396e-01,6.133e-01
7.421e-01,6.572e-01
7.445e-01,8.095e-01
7.469e-01,8.224e-01
7.494e-01,9.250e-01
7.518e-01,9.788e-01
7.543e-01,1.032e+00
7.567e-01,1.143e+00
7.592e-01,1.169e+00
7.616e-01,1.370e+00
7.641e-01,1.418e+00
7.665e-01,1.646e+00
7.689e-01,1.736e+00
7.714e-01,1.913e+00
7.738e-01,1.958e+00
7.763e-01,2.299e+00
7.787e-01,2.294e+00
7.812e-01,2.570e+00
7.836e-01,2.974e+00
7.861e-01,2.976e+00
7.885e-01,3.234e+00
7.910e-01,3.297e+00
7.934e-01,3.780e+00
7.958e-01,3.726e+00
7.983e-01,4.304e+00
8.007e-01,4.323e+00
8.032e-01,4.637e+00
8.056e-01,4.991e+00
8.081e-01,5.098e+00
8.105e-01,5.560e+00
8.130e-01,5.795e+00
8.154e-01,6.284e+00
8.178e-01,6.230e+00
8.203e-01,6.881e+00
8.227e-01,6.818e+00
8.252e-01,7.479e+00
8.276e-01,7.309e+00
8.301e-01,7.700e+00
8.325e-01,8.411e+00
8.350e-01,8.258e+00
8.374e-01,8.906e+00
8.399e-01,8.795e+00
8.423e-01,9.341e+00
8.447e-01,9.046e+00
8.472e-01,9.628e+00
8.496e-01,9.334e+00
8.521e-01,9.414e+00
8.545e-01,1.004e+01
8.570e-01,9.673e+00
8.594e-01,1.005e+01
8.619e-01,9.696e+00
8.643e-01,9.939e+00
8.667e-01,9.419e+00
8.692e-01,9.637e+00
8.716e-01,9.113e+00
8.741e-01,9.196e+00
8.765e-01,8.636e+00
8.790e-01,8.338e+00
8.814e-01,8.502e+00
8.839e-01,7.782e+00
8.863e-01,7.671e+00
8.888e-01,6.987e+00
8.912e-01,6.783e+00
8.936e-01,6.126e+00
8.961e-01,5.800e+00
8.985e-01,5.283e+00
9.010e-01,4.860e+00
9.034e-01,4.650e+00
9.059e-01,3.888e+00
9.083e-01,3.606e+00
9.108e-01,3.067e+00
9.132e-01,2.755e+00
9.156e-01,2.310e+00
9.181e-01,2.093e+00
9.205e-01,1.668e+00
9.230e-01,1.437e+00
9.254e-01,1.143e+00
9.279e-01,8.633e-01
9.303e-01,7.617e-01
9.328e-01,5.357e-01
9.352e-01,4.262e-01
9.377e-01,3.007e-01
9.401e-01,2.499e-01
9.425e-01,1.474e-01
9.450e-01,1.105e-01
9.474e-01,7.965e-02
9.499e-01,3.584e-02
9.523e-01,1.991e-02
9.548e-01,1.792e-02
9.572e-01,6.970e-03
9.597e-01,2.987e-03
9.621e-01,9.957e-04
9.645e-01,0.000e+00
9.670e-01,0.000e+00
9.694e-01,0.000e+00
9.719e-01,0.000e+00
9.743e-01,0.000e+00
9.768e-01,0.000e+00
9.792e-01,0.000e+00
9.817e-01,0.000e+00
9.841e-01,0.000e+00
9.866e-01,0.000e+00
9.890e-01,0.000e+00
9.914e-01,0.000e+00
9.939e-01,0.000e+00
9.963e-01,0.000e+00
9.988e-01,0.000e+00
