transmittance,probability_density
8.595e-01,0.000e+00
8.602e-01,0.000e+00
8.609e-01,0.000e+00
8.616e-01,0.000e+00
8.624e-01,0.000e+00
8.631e-01,0.000e+00
8.638e-01,0.000e+00
8.645e-01,0.000e+00
8.652e-01,0.000e+00
8.659e-01,0.000e+00
8.666e-01,0.000e+00
8.673e-01,0.000e+00
8.680e-01,0.000e+00
8.687e-01,0.000e+00
8.694e-01,0.000e+00
8.701e-01,0.000e+00
8.708e-01,0.000e+00
8.715e-01,0.000e+00
8.722e-01,0.000e+00
8.729e-01,0.000e+00
8.736e-01,0.000e+00
8.743e-01,0.000e+00
8.750e-01,0.000e+00
8.757e-01,0.000e+00
8.764e-01,0.000e+00
8.771e-01,0.000e+00
8.778e-01,0.000e+00
8.785e-01,0.000e+00
8.792e-01,0.000e+00
8.800e-01,0.000e+00
8.807e-01,0.000e+00
8.814e-01,0.000e+00
8.821e-01,0.000e+00
8.828e-01,0.000e+00
8.835e-01,0.000e+00
8.842e-01,0.000e+00
8.849e-01,0.000e+00
8.856e-01,0.000e+00
8.863e-01,0.000e+00
8.870e-01,0.000e+00
8.877e-01,0.000e+00
8.884e-01,0.000e+00
8.891e-01,0.000e+00
8.898e-01,0.000e+00
8.905e-01,0.000e+00
8.912e-01,0.000e+00
8.919e-01,0.000e+00
8.926e-01,0.000e+00
8.933e-01,0.000e+00
8.940e-01,0.000e+00
8.947e-01,0.000e+00
8.954e-01,0.000e+00
8.961e-01,0.000e+00
8.969e-01,0.000e+00
8.976e-01,0.000e+00
8.983e-01,0.000e+00
8.990e-01,0.000e+00
8.997e-01,0.000e+00
9.004e-01,0.000e+00
9.011e-01,0.000e+00
9.018e-01,0.000e+00
9.025e-01,0.000e+00
9.032e-01,0.000e+00
9.039e-01,0.000e+00
9.046e-01,0.000e+00
9.053e-01,0.000e+00
9.060e-01,0.000e+00
9.067e-01,0.000e+00
9.074e-01,0.000e+00
9.081e-01,0.000e+00
9.088e-01,0.000e+00
9.095e-01,0.000e+00
9.102e-01,0.000e+00
9.109e-01,0.000e+00
9.116e-01,0.000e+00
9.123e-01,0.000e+00
9.130e-01,0.000e+00
9.137e-01,0.000e+00
9.145e-01,0.000e+00
9.152e-01,0.000e+00
9.159e-01,0.000e+00
9.166e-01,0.000e+00
9.173e-01,0.000e+00
9.180e-01,0.000e+00
9.187e-01,0.000e+00
9.194e-01,0.000e+00
9.201e-01,0.000e+00
9.208e-01,0.000e+00
9.215e-01,0.000e+00
9.222e-01,0.000e+00
9.229e-01,0.000e+00
9.236e-01,0.000e+00
9.243e-01,0.000e+00
9.250e-01,0.000e+00
9.257e-01,0.000e+00
9.264e-01,0.000e+00
9.271e-01,0.000e+00
9.278e-01,0.000e+00
9.285e-01,0.000e+00
9.292e-01,0.000e+00
9.299e-01,0.000e+00
9.306e-01,0.000e+00
9.314e-01,0.000e+00
9.321e-01,0.000e+00
9.328e-01,0.000e+00
9.335e-01,0.000e+00
9.342e-01,0.000e+00
9.349e-01,0.000e+00
9.356e-01,0.000e+00
9.363e-01,0.000e+00
9.370e-01,0.000e+00
9.377e-01,0.000e+00
9.384e-01,0.000e+00
9.391e-01,0.000e+00
9.398e-01,0.000e+00
9.405e-01,0.000e+00
9.412e-01,0.000e+00
9.419e-01,0.000e+00
9.426e-01,0.000e+00
9.433e-01,0.000e+00
9.440e-01,0.000e+00
9.447e-01,0.000e+00
9.454e-01,3.458e-03
9.461e-01,0.000e+00
9.468e-01,3.458e-03
9.475e-01,0.000e+00
9.482e-01,6.915e-03
9.490e-01,6.915e-03
9.497e-01,0.000e+00
9.504e-01,3.458e-03
9.511e-01,6.915e-03
9.518e-01,3.458e-02
9.525e-01,3.458e-03
9.532e-01,6.915e-03
9.539e-01,1.037e-02
9.546e-01,2.766e-02
9.553e-01,3.803e-02
9.560e-01,5.186e-02
9.567e-01,5.186e-02
9.574e-01,6.224e-02
9.581e-01,7.952e-02
9.588e-01,1.003e-01
9.595e-01,1.176e-01
9.602e-01,1.383e-01
9.609e-01,1.245e-01
9.616e-01,2.040e-01
9.623e-01,2.593e-01
9.630e-01,2.593e-01
9.637e-01,3.803e-01
9.644e-01,4.944e-01
9.651e-01,5.843e-01
9.659e-01,8.609e-01
9.666e-01,8.575e-01
9.673e-01,9.889e-01
9.680e-01,1.442e+00
9.687e-01,1.680e+00
9.694e-01,2.068e+00
9.701e-01,2.351e+00
9.708e-01,3.136e+00
9.715e-01,3.772e+00
9.722e-01,4.481e+00
9.729e-01,5.456e+00
9.736e-01,6.936e+00
9.743e-01,8.502e+00
9.750e-01,9.975e+00
9.757e-01,1.212e+01
9.764e-01,1.472e+01
9.771e-01,1.714e+01
9.778e-01,2.178e+01
9.785e-01,2.471e+01
9.792e-01,3.007e+01
9.799e-01,3.599e+01
9.806e-01,4.197e+01
9.813e-01,4.891e+01
9.820e-01,5.593e+01
9.827e-01,7.614e+01
9.835e-01,7.484e+01
9.842e-01,8.361e+01
9.849e-01,9.222e+01
9.856e-01,9.878e+01
9.863e-01,1.033e+02
9.870e-01,1.046e+02
9.877e-01,1.028e+02
9.884e-01,9.347e+01
9.891e-01,8.138e+01
9.898e-01,6.322e+01
9.905e-01,4.383e+01
9.912e-01,2.600e+01
9.919e-01,1.210e+01
9.926e-01,4.215e+00
9.933e-01,8.194e-01
9.940e-01,7.607e-02
9.947e-01,3.458e-03
9.954e-01,0.000e+00
9.961e-01,0.000e+00
9.968e-01,0.000e+00
9.975e-01,0.000e+00
9.982e-01,0.000e+00
9.989e-01,0.000e+00
9.996e-01,0.000e+00
