transmittance,probability_density
8.430e-01,0.000e+00
8.438e-01,0.000e+00
8.446e-01,0.000e+00
8.454e-01,0.000e+00
8.462e-01,0.000e+00
8.470e-01,0.000e+00
8.478e-01,0.000e+00
8.485e-01,0.000e+00
8.493e-01,0.000e+00
8.501e-01,0.000e+00
8.509e-01,0.000e+00
8.517e-01,0.000e+00
8.525e-01,0.000e+00
8.533e-01,0.000e+00
8.540e-01,0.000e+00
8.548e-01,0.000e+00
8.556e-01,0.000e+00
8.564e-01,0.000e+00
8.572e-01,0.000e+00
8.580e-01,0.000e+00
8.588e-01,0.000e+00
8.596e-01,0.000e+00
8.603e-01,0.000e+00
8.611e-01,0.000e+00
8.619e-01,0.000e+00
8.627e-01,0.000e+00
8.635e-01,0.000e+00
8.643e-01,0.000e+00
8.651e-01,0.000e+00
8.658e-01,0.000e+00
8.666e-01,0.000e+00
8.674e-01,0.000e+00
8.682e-01,0.000e+00
8.690e-01,0.000e+00
8.698e-01,0.000e+00
8.706e-01,0.000e+00
8.714e-01,0.000e+00
8.721e-01,0.000e+00
8.729e-01,0.000e+00
8.737e-01,0.000e+00
8.745e-01,0.000e+00
8.753e-01,0.000e+00
8.761e-01,0.000e+00
8.769e-01,0.000e+00
8.776e-01,0.000e+00
8.784e-01,0.000e+00
8.792e-01,0.000e+00
8.800e-01,0.000e+00
8.808e-01,0.000e+00
8.816e-01,0.000e+00
8.824e-01,0.000e+00
8.832e-01,0.000e+00
8.839e-01,0.000e+00
8.847e-01,0.000e+00
8.855e-01,0.000e+00
8.863e-01,0.000e+00
8.871e-01,0.000e+00
8.879e-01,0.000e+00
8.887e-01,0.000e+00
8.895e-01,0.000e+00
8.902e-01,0.000e+00
8.910e-01,0.000e+00
8.918e-01,0.000e+00
8.926e-01,0.000e+00
8.934e-01,0.000e+00
8.942e-01,0.000e+00
8.950e-01,0.000e+00
8.957e-01,0.000e+00
8.965e-01,0.000e+00
8.973e-01,0.000e+00
8.981e-01,0.000e+00
8.989e-01,0.000e+00
8.997e-01,0.000e+00
9.005e-01,0.000e+00
9.013e-01,0.000e+00
9.020e-01,0.000e+00
9.028e-01,0.000e+00
9.036e-01,0.000e+00
9.044e-01,0.000e+00
9.052e-01,0.000e+00
9.060e-01,0.000e+00
9.068e-01,0.000e+00
9.075e-01,0.000e+00
9.083e-01,0.000e+00
9.091e-01,0.000e+00
9.099e-01,0.000e+00
9.107e-01,0.000e+00
9.115e-01,0.000e+00
9.123e-01,0.000e+00
9.131e-01,0.000e+00
9.138e-01,0.000e+00
9.146e-01,0.000e+00
9.154e-01,0.000e+00
9.162e-01,0.000e+00
9.170e-01,0.000e+00
9.178e-01,0.000e+00
9.186e-01,0.000e+00
9.194e-01,0.000e+00
9.201e-01,0.000e+00
9.209e-01,0.000e+00
9.217e-01,0.000e+00
9.225e-01,0.000e+00
9.233e-01,0.000e+00
9.241e-01,0.000e+00
9.249e-01,0.000e+00
9.256e-01,0.000e+00
9.264e-01,0.000e+00
9.272e-01,3.094e-03
9.280e-01,0.000e+00
9.288e-01,0.000e+00
9.296e-01,3.094e-03
9.304e-01,0.000e+00
9.312e-01,3.094e-03
9.319e-01,6.188e-03
9.327e-01,1.547e-02
9.335e-01,0.000e+00
9.343e-01,0.000e+00
9.351e-01,1.238e-02
9.359e-01,1.238e-02
9.367e-01,1.856e-02
9.374e-01,1.238e-02
9.382e-01,4.022e-02
9.390e-01,3.094e-02
9.398e-01,2.785e-02
9.406e-01,3.094e-02
9.414e-01,3.403e-02
9.422e-01,4.332e-02
9.430e-01,4.332e-02
9.437e-01,6.497e-02
9.445e-01,9.282e-02
9.453e-01,7.116e-02
9.461e-01,6.497e-02
9.469e-01,1.238e-01
9.477e-01,1.516e-01
9.485e-01,1.887e-01
9.493e-01,2.413e-01
9.500e-01,2.228e-01
9.508e-01,3.434e-01
9.516e-01,3.837e-01
9.524e-01,3.682e-01
9.532e-01,5.755e-01
9.540e-01,5.971e-01
9.548e-01,7.426e-01
9.555e-01,7.983e-01
9.563e-01,1.043e+00
9.571e-01,1.105e+00
9.579e-01,1.330e+00
9.587e-01,1.665e+00
9.595e-01,1.890e+00
9.603e-01,2.308e+00
9.611e-01,2.800e+00
9.618e-01,3.184e+00
9.626e-01,3.639e+00
9.634e-01,4.548e+00
9.642e-01,4.626e+00
9.650e-01,6.170e+00
9.658e-01,7.246e+00
9.666e-01,8.540e+00
9.673e-01,9.904e+00
9.681e-01,1.123e+01
9.689e-01,1.313e+01
9.697e-01,1.559e+01
9.705e-01,1.540e+01
9.713e-01,2.047e+01
9.721e-01,2.350e+01
9.729e-01,2.663e+01
9.736e-01,3.067e+01
9.744e-01,3.396e+01
9.752e-01,3.903e+01
9.760e-01,3.811e+01
9.768e-01,4.798e+01
9.776e-01,5.222e+01
9.784e-01,5.753e+01
9.791e-01,6.185e+01
9.799e-01,6.744e+01
9.807e-01,6.976e+01
9.815e-01,7.295e+01
9.823e-01,6.462e+01
9.831e-01,7.396e+01
9.839e-01,7.204e+01
9.847e-01,6.748e+01
9.854e-01,6.063e+01
9.862e-01,5.216e+01
9.870e-01,4.226e+01
9.878e-01,2.807e+01
9.886e-01,2.256e+01
9.894e-01,1.365e+01
9.902e-01,6.912e+00
9.910e-01,2.853e+00
9.917e-01,8.045e-01
9.925e-01,1.114e-01
9.933e-01,1.547e-02
9.941e-01,0.000e+00
9.949e-01,0.000e+00
9.957e-01,0.000e+00
9.965e-01,0.000e+00
9.972e-01,0.000e+00
9.980e-01,0.000e+00
9.988e-01,0.000e+00
9.996e-01,0.000e+00
