transmittance,probability_density
8.517e-01,0.000e+00
8.525e-01,0.000e+00
8.532e-01,0.000e+00
8.540e-01,0.000e+00
8.547e-01,0.000e+00
8.555e-01,0.000e+00
8.562e-01,0.000e+00
8.569e-01,0.000e+00
8.577e-01,0.000e+00
8.584e-01,0.000e+00
8.592e-01,0.000e+00
8.599e-01,0.000e+00
8.607e-01,0.000e+00
8.614e-01,0.000e+00
8.621e-01,0.000e+00
8.629e-01,0.000e+00
8.636e-01,0.000e+00
8.644e-01,0.000e+00
8.651e-01,0.000e+00
8.659e-01,0.000e+00
8.666e-01,0.000e+00
8.673e-01,0.000e+00
8.681e-01,0.000e+00
8.688e-01,0.000e+00
8.696e-01,0.000e+00
8.703e-01,0.000e+00
8.711e-01,0.000e+00
8.718e-01,0.000e+00
8.725e-01,0.000e+00
8.733e-01,0.000e+00
8.740e-01,0.000e+00
8.748e-01,0.000e+00
8.755e-01,0.000e+00
8.763e-01,0.000e+00
8.770e-01,0.000e+00
8.777e-01,0.000e+00
8.785e-01,0.000e+00
8.792e-01,0.000e+00
8.800e-01,0.000e+00
8.807e-01,0.000e+00
8.815e-01,0.000e+00
8.822e-01,0.000e+00
8.829e-01,0.000e+00
8.837e-01,0.000e+00
8.844e-01,0.000e+00
8.852e-01,0.000e+00
8.859e-01,0.000e+00
8.867e-01,0.000e+00
8.874e-01,0.000e+00
8.882e-01,0.000e+00
8.889e-01,0.000e+00
8.896e-01,0.000e+00
8.904e-01,0.000e+00
8.911e-01,0.000e+00
8.919e-01,0.000e+00
8.926e-01,0.000e+00
8.934e-01,0.000e+00
8.941e-01,0.000e+00
8.948e-01,0.000e+00
8.956e-01,0.000e+00
8.963e-01,0.000e+00
8.971e-01,0.000e+00
8.978e-01,0.000e+00
8.986e-01,0.000e+00
8.993e-01,0.000e+00
9.000e-01,0.000e+00
9.008e-01,0.000e+00
9.015e-01,0.000e+00
9.023e-01,0.000e+00
9.030e-01,0.000e+00
9.038e-01,0.000e+00
9.045e-01,0.000e+00
9.052e-01,0.000e+00
9.060e-01,0.000e+00
9.067e-01,0.000e+00
9.075e-01,0.000e+00
9.082e-01,0.000e+00
9.090e-01,0.000e+00
9.097e-01,0.000e+00
9.104e-01,0.000e+00
9.112e-01,0.000e+00
9.119e-01,0.000e+00
9.127e-01,0.000e+00
9.134e-01,0.000e+00
9.142e-01,0.000e+00
9.149e-01,0.000e+00
9.156e-01,0.000e+00
9.164e-01,0.000e+00
9.171e-01,0.000e+00
9.179e-01,0.000e+00
9.186e-01,0.000e+00
9.194e-01,0.000e+00
9.201e-01,0.000e+00
9.209e-01,0.000e+00
9.216e-01,0.000e+00
9.223e-01,0.000e+00
9.231e-01,0.000e+00
9.238e-01,0.000e+00
9.246e-01,0.000e+00
9.253e-01,0.000e+00
9.261e-01,0.000e+00
9.268e-01,0.000e+00
9.275e-01,0.000e+00
9.283e-01,0.000e+00
9.290e-01,0.000e+00
9.298e-01,0.000e+00
9.305e-01,0.000e+00
9.313e-01,0.000e+00
9.320e-01,0.000e+00
9.327e-01,0.000e+00
9.335e-01,0.000e+00
9.342e-01,0.000e+00
9.350e-01,0.000e+00
9.357e-01,0.000e+00
9.365e-01,3.276e-03
9.372e-01,0.000e+00
9.379e-01,0.000e+00
9.387e-01,0.000e+00
9.394e-01,6.551e-03
9.402e-01,0.000e+00
9.409e-01,3.276e-03
9.417e-01,0.000e+00
9.424e-01,1.310e-02
9.431e-01,1.310e-02
9.439e-01,9.827e-03
9.446e-01,1.638e-02
9.454e-01,6.551e-03
9.461e-01,0.000e+00
9.469e-01,3.276e-02
9.476e-01,3.603e-02
9.483e-01,4.914e-02
9.491e-01,4.258e-02
9.498e-01,3.931e-02
9.506e-01,4.586e-02
9.513e-01,6.224e-02
9.521e-01,9.172e-02
9.528e-01,7.534e-02
9.536e-01,1.278e-01
9.543e-01,1.278e-01
9.550e-01,1.703e-01
9.558e-01,1.998e-01
9.565e-01,1.802e-01
9.573e-01,3.210e-01
9.580e-01,3.505e-01
9.588e-01,5.208e-01
9.595e-01,5.372e-01
9.602e-01,6.682e-01
9.610e-01,7.370e-01
9.617e-01,8.484e-01
9.625e-01,1.176e+00
9.632e-01,1.225e+00
9.640e-01,1.805e+00
9.647e-01,1.874e+00
9.654e-01,2.440e+00
9.662e-01,2.604e+00
9.669e-01,3.155e+00
9.677e-01,4.229e+00
9.684e-01,4.570e+00
9.692e-01,6.152e+00
9.699e-01,6.568e+00
9.706e-01,9.018e+00
9.714e-01,9.277e+00
9.721e-01,1.231e+01
9.729e-01,1.278e+01
9.736e-01,1.494e+01
9.744e-01,2.072e+01
9.751e-01,2.049e+01
9.758e-01,2.812e+01
9.766e-01,2.854e+01
9.773e-01,3.783e+01
9.781e-01,3.743e+01
9.788e-01,4.258e+01
9.796e-01,5.605e+01
9.803e-01,5.521e+01
9.810e-01,6.924e+01
9.818e-01,6.658e+01
9.825e-01,8.327e+01
9.833e-01,7.714e+01
9.840e-01,8.064e+01
9.848e-01,9.357e+01
9.855e-01,8.264e+01
9.863e-01,8.942e+01
9.870e-01,7.170e+01
9.877e-01,7.047e+01
9.885e-01,4.929e+01
9.892e-01,3.662e+01
9.900e-01,2.706e+01
9.907e-01,1.292e+01
9.915e-01,6.470e+00
9.922e-01,1.772e+00
9.929e-01,3.177e-01
9.937e-01,2.948e-02
9.944e-01,0.000e+00
9.952e-01,0.000e+00
9.959e-01,0.000e+00
9.967e-01,0.000e+00
9.974e-01,0.000e+00
9.981e-01,0.000e+00
9.989e-01,0.000e+00
9.996e-01,0.000e+00
