transmittance,probability_density
8.666e-01,0.000e+00
8.673e-01,0.000e+00
8.679e-01,0.000e+00
8.686e-01,0.000e+00
8.693e-01,0.000e+00
8.700e-01,0.000e+00
8.706e-01,0.000e+00
8.713e-01,0.000e+00
8.720e-01,0.000e+00
8.726e-01,0.000e+00
8.733e-01,0.000e+00
8.740e-01,0.000e+00
8.746e-01,0.000e+00
8.753e-01,0.000e+00
8.760e-01,0.000e+00
8.766e-01,0.000e+00
8.773e-01,0.000e+00
8.780e-01,0.000e+00
8.786e-01,0.000e+00
8.793e-01,0.000e+00
8.800e-01,0.000e+00
8.806e-01,0.000e+00
8.813e-01,0.000e+00
8.820e-01,0.000e+00
8.827e-01,0.000e+00
8.833e-01,0.000e+00
8.840e-01,0.000e+00
8.847e-01,0.000e+00
8.853e-01,0.000e+00
8.860e-01,0.000e+00
8.867e-01,0.000e+00
8.873e-01,0.000e+00
8.880e-01,0.000e+00
8.887e-01,0.000e+00
8.893e-01,0.000e+00
8.900e-01,0.000e+00
8.907e-01,0.000e+00
8.913e-01,0.000e+00
8.920e-01,0.000e+00
8.927e-01,0.000e+00
8.934e-01,0.000e+00
8.940e-01,0.000e+00
8.947e-01,0.000e+00
8.954e-01,0.000e+00
8.960e-01,0.000e+00
8.967e-01,0.000e+00
8.974e-01,0.000e+00
8.980e-01,0.000e+00
8.987e-01,0.000e+00
8.994e-01,0.000e+00
9.000e-01,0.000e+00
9.007e-01,0.000e+00
9.014e-01,0.000e+00
9.020e-01,0.000e+00
9.027e-01,0.000e+00
9.034e-01,0.000e+00
9.041e-01,0.000e+00
9.047e-01,0.000e+00
9.054e-01,0.000e+00
9.061e-01,0.000e+00
9.067e-01,0.000e+00
9.074e-01,0.000e+00
9.081e-01,0.000e+00
9.087e-01,0.000e+00
9.094e-01,0.000e+00
9.101e-01,0.000e+00
9.107e-01,0.000e+00
9.114e-01,0.000e+00
9.121e-01,0.000e+00
9.127e-01,0.000e+00
9.134e-01,0.000e+00
9.141e-01,0.000e+00
9.147e-01,0.000e+00
9.154e-01,0.000e+00
9.161e-01,0.000e+00
9.168e-01,0.000e+00
9.174e-01,0.000e+00
9.181e-01,0.000e+00
9.188e-01,0.000e+00
9.194e-01,0.000e+00
9.201e-01,0.000e+00
9.208e-01,0.000e+00
9.214e-01,0.000e+00
9.221e-01,0.000e+00
9.228e-01,0.000e+00
9.234e-01,0.000e+00
9.241e-01,0.000e+00
9.248e-01,0.000e+00
9.254e-01,0.000e+00
9.261e-01,0.000e+00
9.268e-01,0.000e+00
9.275e-01,0.000e+00
9.281e-01,0.000e+00
9.288e-01,0.000e+00
9.295e-01,0.000e+00
9.301e-01,0.000e+00
9.308e-01,0.000e+00
9.315e-01,0.000e+00
9.321e-01,0.000e+00
9.328e-01,0.000e+00
9.335e-01,0.000e+00
9.341e-01,0.000e+00
9.348e-01,0.000e+00
9.355e-01,0.000e+00
9.361e-01,0.000e+00
9.368e-01,0.000e+00
9.375e-01,0.000e+00
9.382e-01,0.000e+00
9.388e-01,0.000e+00
9.395e-01,0.000e+00
9.402e-01,0.000e+00
9.408e-01,0.000e+00
9.415e-01,0.000e+00
9.422e-01,0.000e+00
9.428e-01,0.000e+00
9.435e-01,0.000e+00
9.442e-01,0.000e+00
9.448e-01,0.000e+00
9.455e-01,0.000e+00
9.462e-01,0.000e+00
9.468e-01,0.000e+00
9.475e-01,0.000e+00
9.482e-01,0.000e+00
9.488e-01,0.000e+00
9.495e-01,0.000e+00
9.502e-01,0.000e+00
9.509e-01,0.000e+00
9.515e-01,0.000e+00
9.522e-01,0.000e+00
9.529e-01,7.282e-03
9.535e-01,0.000e+00
9.542e-01,3.641e-03
9.549e-01,3.641e-03
9.555e-01,3.641e-03
9.562e-01,0.000e+00
9.569e-01,3.641e-03
9.575e-01,3.641e-03
9.582e-01,1.820e-02
9.589e-01,2.185e-02
9.595e-01,7.282e-03
9.602e-01,1.820e-02
9.609e-01,1.820e-02
9.616e-01,4.733e-02
9.622e-01,5.097e-02
9.629e-01,6.918e-02
9.636e-01,9.466e-02
9.642e-01,1.019e-01
9.649e-01,1.384e-01
9.656e-01,1.019e-01
9.662e-01,1.347e-01
9.669e-01,2.585e-01
9.676e-01,3.204e-01
9.682e-01,2.804e-01
9.689e-01,4.624e-01
9.696e-01,5.971e-01
9.702e-01,6.008e-01
9.709e-01,1.012e+00
9.716e-01,1.183e+00
9.723e-01,1.143e+00
9.729e-01,1.893e+00
9.736e-01,2.345e+00
9.743e-01,2.734e+00
9.749e-01,3.754e+00
9.756e-01,4.748e+00
9.763e-01,5.072e+00
9.769e-01,7.140e+00
9.776e-01,9.514e+00
9.783e-01,1.148e+01
9.789e-01,1.227e+01
9.796e-01,1.756e+01
9.803e-01,2.229e+01
9.809e-01,2.273e+01
9.816e-01,3.281e+01
9.823e-01,4.020e+01
9.829e-01,4.144e+01
9.836e-01,5.771e+01
9.843e-01,6.901e+01
9.850e-01,6.938e+01
9.856e-01,9.375e+01
9.863e-01,1.066e+02
9.870e-01,1.014e+02
9.876e-01,1.276e+02
9.883e-01,1.324e+02
9.890e-01,1.311e+02
9.896e-01,1.044e+02
9.903e-01,1.036e+02
9.910e-01,7.588e+01
9.916e-01,4.198e+01
9.923e-01,2.530e+01
9.930e-01,8.829e+00
9.936e-01,1.671e+00
9.943e-01,2.367e-01
9.950e-01,3.641e-03
9.957e-01,0.000e+00
9.963e-01,0.000e+00
9.970e-01,0.000e+00
9.977e-01,0.000e+00
9.983e-01,0.000e+00
9.990e-01,0.000e+00
9.997e-01,0.000e+00
