transmittance,probability_density
8.344e-04,0.000e+00
2.503e-03,0.000e+00
4.172e-03,0.000e+00
5.840e-03,0.000e+00
7.509e-03,0.000e+00
9.178e-03,0.000e+00
1.085e-02,0.000e+00
1.252e-02,1.459e-03
1.418e-02,0.000e+00
1.585e-02,1.459e-03
1.752e-02,2.918e-03
1.919e-02,1.459e-03
2.086e-02,1.459e-03
2.253e-02,2.918e-03
2.420e-02,1.021e-02
2.586e-02,1.897e-02
2.753e-02,3.064e-02
2.920e-02,4.377e-02
3.087e-02,8.607e-02
3.254e-02,1.007e-01
3.421e-02,1.430e-01
3.588e-02,1.897e-01
3.755e-02,2.626e-01
3.921e-02,3.414e-01
4.088e-02,4.800e-01
4.255e-02,6.477e-01
4.422e-02,8.097e-01
4.589e-02,9.687e-01
4.756e-02,1.225e+00
4.923e-02,1.481e+00
5.090e-02,1.745e+00
5.256e-02,2.140e+00
5.423e-02,2.657e+00
5.590e-02,3.007e+00
5.757e-02,3.420e+00
5.924e-02,3.975e+00
6.091e-02,4.520e+00
6.258e-02,5.144e+00
6.424e-02,5.951e+00
6.591e-02,6.402e+00
6.758e-02,7.111e+00
6.925e-02,7.554e+00
7.092e-02,8.195e+00
7.259e-02,9.130e+00
7.426e-02,9.829e+00
7.593e-02,1.029e+01
7.759e-02,1.082e+01
7.926e-02,1.164e+01
8.093e-02,1.191e+01
8.260e-02,1.238e+01
8.427e-02,1.293e+01
8.594e-02,1.326e+01
8.761e-02,1.386e+01
8.928e-02,1.366e+01
9.094e-02,1.438e+01
9.261e-02,1.430e+01
9.428e-02,1.461e+01
9.595e-02,1.445e+01
9.762e-02,1.438e+01
9.929e-02,1.475e+01
1.010e-01,1.370e+01
1.026e-01,1.461e+01
1.043e-01,1.428e+01
1.060e-01,1.301e+01
1.076e-01,1.364e+01
1.093e-01,1.341e+01
1.110e-01,1.284e+01
1.126e-01,1.184e+01
1.143e-01,1.213e+01
1.160e-01,1.184e+01
1.176e-01,1.091e+01
1.193e-01,1.096e+01
1.210e-01,1.064e+01
1.226e-01,9.433e+00
1.243e-01,9.767e+00
1.260e-01,9.153e+00
1.277e-01,8.017e+00
1.293e-01,8.176e+00
1.310e-01,7.812e+00
1.327e-01,6.864e+00
1.343e-01,7.079e+00
1.360e-01,6.386e+00
1.377e-01,6.205e+00
1.393e-01,5.325e+00
1.410e-01,5.446e+00
1.427e-01,5.121e+00
1.443e-01,4.438e+00
1.460e-01,4.380e+00
1.477e-01,3.921e+00
1.493e-01,3.463e+00
1.510e-01,3.468e+00
1.527e-01,3.255e+00
1.544e-01,2.749e+00
1.560e-01,2.747e+00
1.577e-01,2.476e+00
1.594e-01,2.266e+00
1.610e-01,2.044e+00
1.627e-01,1.968e+00
1.644e-01,1.738e+00
1.660e-01,1.444e+00
1.677e-01,1.455e+00
1.694e-01,1.395e+00
1.710e-01,1.164e+00
1.727e-01,1.103e+00
1.744e-01,1.007e+00
1.760e-01,8.637e-01
1.777e-01,8.739e-01
1.794e-01,7.163e-01
1.811e-01,6.025e-01
1.827e-01,6.448e-01
1.844e-01,5.617e-01
1.861e-01,4.523e-01
1.877e-01,4.829e-01
1.894e-01,4.143e-01
1.911e-01,3.895e-01
1.927e-01,3.122e-01
1.944e-01,3.297e-01
1.961e-01,2.991e-01
1.977e-01,2.072e-01
1.994e-01,2.290e-01
2.011e-01,1.649e-01
2.027e-01,1.503e-01
2.044e-01,1.342e-01
2.061e-01,1.196e-01
2.078e-01,1.182e-01
2.094e-01,9.920e-02
2.111e-01,1.007e-01
2.128e-01,7.732e-02
2.144e-01,6.273e-02
2.161e-01,6.711e-02
2.178e-01,5.544e-02
2.194e-01,4.085e-02
2.211e-01,3.647e-02
2.228e-01,5.106e-02
2.244e-01,3.355e-02
2.261e-01,2.772e-02
2.278e-01,3.939e-02
2.294e-01,2.480e-02
2.311e-01,1.751e-02
2.328e-01,1.459e-02
2.345e-01,1.167e-02
2.361e-01,8.753e-03
2.378e-01,8.753e-03
2.395e-01,1.021e-02
2.411e-01,2.918e-03
2.428e-01,1.021e-02
2.445e-01,8.753e-03
2.461e-01,1.021e-02
2.478e-01,5.836e-03
2.495e-01,1.459e-03
2.511e-01,5.836e-03
2.528e-01,7.294e-03
2.545e-01,5.836e-03
2.561e-01,1.459e-03
2.578e-01,0.000e+00
2.595e-01,4.377e-03
2.612e-01,5.836e-03
2.628e-01,0.000e+00
2.645e-01,2.918e-03
2.662e-01,2.918e-03
2.678e-01,0.000e+00
2.695e-01,4.377e-03
2.712e-01,0.000e+00
2.728e-01,0.000e+00
2.745e-01,0.000e+00
2.762e-01,0.000e+00
2.778e-01,0.000e+00
2.795e-01,2.918e-03
2.812e-01,1.459e-03
2.828e-01,1.459e-03
2.845e-01,0.000e+00
2.862e-01,0.000e+00
2.879e-01,1.459e-03
2.895e-01,0.000e+00
2.912e-01,0.000e+00
2.929e-01,0.000e+00
2.945e-01,0.000e+00
2.962e-01,0.000e+00
2.979e-01,0.000e+00
2.995e-01,0.000e+00
3.012e-01,0.000e+00
3.029e-01,1.459e-03
3.045e-01,0.000e+00
3.062e-01,0.000e+00
3.079e-01,0.000e+00
3.095e-01,0.000e+00
3.112e-01,0.000e+00
3.129e-01,0.000e+00
3.145e-01,0.000e+00
3.162e-01,0.000e+00
3.179e-01,0.000e+00
3.196e-01,0.000e+00
3.212e-01,0.000e+00
3.229e-01,0.000e+00
3.246e-01,0.000e+00
3.262e-01,0.000e+00
3.279e-01,0.000e+00
3.296e-01,0.000e+00
3.312e-01,0.000e+00
3.329e-01,0.000e+00
