transmittance,probability_density
2.036e-01,0.000e+00
2.076e-01,0.000e+00
2.116e-01,0.000e+00
2.156e-01,0.000e+00
2.196e-01,0.000e+00
2.236e-01,2.505e-03
2.276e-01,0.000e+00
2.316e-01,0.000e+00
2.356e-01,0.000e+00
2.396e-01,5.010e-03
2.436e-01,2.505e-03
2.475e-01,7.515e-03
2.515e-01,2.505e-03
2.555e-01,5.010e-03
2.595e-01,2.505e-03
2.635e-01,7.515e-03
2.675e-01,2.505e-03
2.715e-01,5.010e-03
2.755e-01,1.002e-02
2.795e-01,2.505e-03
2.835e-01,1.253e-02
2.875e-01,1.253e-02
2.915e-01,2.004e-02
2.954e-01,2.505e-02
2.994e-01,1.754e-02
3.034e-01,4.259e-02
3.074e-01,3.758e-02
3.114e-01,3.758e-02
3.154e-01,4.008e-02
3.194e-01,6.513e-02
3.234e-01,6.764e-02
3.274e-01,9.519e-02
3.314e-01,1.177e-01
3.354e-01,1.403e-01
3.394e-01,1.253e-01
3.433e-01,1.854e-01
3.473e-01,1.954e-01
3.513e-01,1.879e-01
3.553e-01,2.530e-01
3.593e-01,2.630e-01
3.633e-01,3.081e-01
3.673e-01,3.632e-01
3.713e-01,3.482e-01
3.753e-01,4.484e-01
3.793e-01,4.985e-01
3.833e-01,5.536e-01
3.873e-01,6.939e-01
3.912e-01,7.390e-01
3.952e-01,8.593e-01
3.992e-01,8.192e-01
4.032e-01,9.269e-01
4.072e-01,1.100e+00
4.112e-01,1.155e+00
4.152e-01,1.172e+00
4.192e-01,1.390e+00
4.232e-01,1.573e+00
4.272e-01,1.601e+00
4.312e-01,1.806e+00
4.352e-01,1.806e+00
4.391e-01,1.841e+00
4.431e-01,2.019e+00
4.471e-01,2.297e+00
4.511e-01,2.513e+00
4.551e-01,2.683e+00
4.591e-01,2.803e+00
4.631e-01,2.756e+00
4.671e-01,3.094e+00
4.711e-01,3.192e+00
4.751e-01,3.219e+00
4.791e-01,3.582e+00
4.831e-01,3.773e+00
4.871e-01,3.740e+00
4.910e-01,3.900e+00
4.950e-01,4.148e+00
4.990e-01,4.319e+00
5.030e-01,4.364e+00
5.070e-01,4.437e+00
5.110e-01,4.522e+00
5.150e-01,4.767e+00
5.190e-01,4.953e+00
5.230e-01,5.105e+00
5.270e-01,4.847e+00
5.310e-01,5.033e+00
5.350e-01,5.130e+00
5.389e-01,5.156e+00
5.429e-01,5.130e+00
5.469e-01,5.236e+00
5.509e-01,5.143e+00
5.549e-01,5.128e+00
5.589e-01,4.845e+00
5.629e-01,5.253e+00
5.669e-01,5.168e+00
5.709e-01,5.068e+00
5.749e-01,4.840e+00
5.789e-01,4.752e+00
5.829e-01,4.629e+00
5.868e-01,4.319e+00
5.908e-01,4.665e+00
5.948e-01,4.299e+00
5.988e-01,4.031e+00
6.028e-01,3.885e+00
6.068e-01,3.910e+00
6.108e-01,3.394e+00
6.148e-01,3.595e+00
6.188e-01,3.462e+00
6.228e-01,3.224e+00
6.268e-01,2.974e+00
6.308e-01,3.051e+00
6.347e-01,2.841e+00
6.387e-01,2.610e+00
6.427e-01,2.422e+00
6.467e-01,2.252e+00
6.507e-01,2.139e+00
6.547e-01,1.919e+00
6.587e-01,1.686e+00
6.627e-01,1.779e+00
6.667e-01,1.568e+00
6.707e-01,1.440e+00
6.747e-01,1.308e+00
6.787e-01,1.200e+00
6.827e-01,1.007e+00
6.866e-01,1.047e+00
6.906e-01,9.169e-01
6.946e-01,7.791e-01
6.986e-01,6.238e-01
7.026e-01,6.213e-01
7.066e-01,5.411e-01
7.106e-01,4.885e-01
7.146e-01,3.758e-01
7.186e-01,3.958e-01
7.226e-01,3.357e-01
7.266e-01,2.430e-01
7.306e-01,2.856e-01
7.345e-01,2.079e-01
7.385e-01,1.528e-01
7.425e-01,1.678e-01
7.465e-01,1.478e-01
7.505e-01,1.328e-01
7.545e-01,5.511e-02
7.585e-01,9.519e-02
7.625e-01,4.760e-02
7.665e-01,6.012e-02
7.705e-01,5.010e-02
7.745e-01,4.760e-02
7.785e-01,3.257e-02
7.824e-01,2.255e-02
7.864e-01,3.006e-02
7.904e-01,2.004e-02
7.944e-01,2.004e-02
7.984e-01,7.515e-03
8.024e-01,7.515e-03
8.064e-01,7.515e-03
8.104e-01,5.010e-03
8.144e-01,0.000e+00
8.184e-01,2.505e-03
8.224e-01,2.505e-03
8.264e-01,0.000e+00
8.303e-01,2.505e-03
8.343e-01,2.505e-03
8.383e-01,2.505e-03
8.423e-01,2.505e-03
8.463e-01,0.000e+00
8.503e-01,0.000e+00
8.543e-01,0.000e+00
8.583e-01,0.000e+00
8.623e-01,0.000e+00
8.663e-01,0.000e+00
8.703e-01,0.000e+00
8.743e-01,0.000e+00
8.782e-01,0.000e+00
8.822e-01,0.000e+00
8.862e-01,0.000e+00
8.902e-01,0.000e+00
8.942e-01,0.000e+00
8.982e-01,0.000e+00
9.022e-01,0.000e+00
9.062e-01,0.000e+00
9.102e-01,0.000e+00
9.142e-01,0.000e+00
9.182e-01,0.000e+00
9.222e-01,0.000e+00
9.262e-01,0.000e+00
9.301e-01,0.000e+00
9.341e-01,0.000e+00
9.381e-01,0.000e+00
9.421e-01,0.000e+00
9.461e-01,0.000e+00
9.501e-01,0.000e+00
9.541e-01,0.000e+00
9.581e-01,0.000e+00
9.621e-01,0.000e+00
9.661e-01,0.000e+00
9.701e-01,0.000e+00
9.741e-01,0.000e+00
9.780e-01,0.000e+00
9.820e-01,0.000e+00
9.860e-01,0.000e+00
9.900e-01,0.000e+00
9.940e-01,0.000e+00
9.980e-01,0.000e+00
