transmittance,probability_density
2.456e-01,0.000e+00
2.494e-01,0.000e+00
2.532e-01,0.000e+00
2.570e-01,0.000e+00
2.607e-01,0.000e+00
2.645e-01,0.000e+00
2.683e-01,6.438e-04
2.721e-01,0.000e+00
2.759e-01,0.000e+00
2.797e-01,0.000e+00
2.834e-01,0.000e+00
2.872e-01,0.000e+00
2.910e-01,0.000e+00
2.948e-01,0.000e+00
2.986e-01,6.438e-04
3.023e-01,0.000e+00
3.061e-01,6.438e-04
3.099e-01,0.000e+00
3.137e-01,6.438e-04
3.175e-01,1.288e-03
3.212e-01,6.438e-04
3.250e-01,6.438e-04
3.288e-01,0.000e+00
3.326e-01,0.000e+00
3.364e-01,1.288e-03
3.402e-01,6.438e-04
3.439e-01,6.438e-04
3.477e-01,1.288e-03
3.515e-01,1.931e-03
3.553e-01,1.931e-03
3.591e-01,1.931e-03
3.628e-01,3.219e-03
3.666e-01,1.288e-03
3.704e-01,3.863e-03
3.742e-01,7.726e-03
3.780e-01,1.094e-02
3.817e-01,5.794e-03
3.855e-01,7.726e-03
3.893e-01,1.352e-02
3.931e-01,1.159e-02
3.969e-01,1.352e-02
4.007e-01,2.060e-02
4.044e-01,2.060e-02
4.082e-01,2.446e-02
4.120e-01,2.768e-02
4.158e-01,3.090e-02
4.196e-01,3.026e-02
4.233e-01,3.283e-02
4.271e-01,4.378e-02
4.309e-01,4.185e-02
4.347e-01,6.438e-02
4.385e-01,6.953e-02
4.422e-01,6.438e-02
4.460e-01,7.854e-02
4.498e-01,1.004e-01
4.536e-01,1.185e-01
4.574e-01,1.094e-01
4.612e-01,1.423e-01
4.649e-01,1.655e-01
4.687e-01,1.783e-01
4.725e-01,1.828e-01
4.763e-01,2.041e-01
4.801e-01,2.253e-01
4.838e-01,2.865e-01
4.876e-01,3.000e-01
4.914e-01,3.438e-01
4.952e-01,3.618e-01
4.990e-01,4.191e-01
5.028e-01,4.597e-01
5.065e-01,4.874e-01
5.103e-01,5.505e-01
5.141e-01,6.193e-01
5.179e-01,6.947e-01
5.217e-01,7.365e-01
5.254e-01,8.022e-01
5.292e-01,9.097e-01
5.330e-01,9.419e-01
5.368e-01,1.031e+00
5.406e-01,1.162e+00
5.443e-01,1.293e+00
5.481e-01,1.357e+00
5.519e-01,1.476e+00
5.557e-01,1.587e+00
5.595e-01,1.816e+00
5.633e-01,1.825e+00
5.670e-01,1.951e+00
5.708e-01,2.123e+00
5.746e-01,2.175e+00
5.784e-01,2.461e+00
5.822e-01,2.535e+00
5.859e-01,2.683e+00
5.897e-01,2.837e+00
5.935e-01,2.880e+00
5.973e-01,3.164e+00
6.011e-01,3.323e+00
6.048e-01,3.546e+00
6.086e-01,3.683e+00
6.124e-01,3.944e+00
6.162e-01,3.917e+00
6.200e-01,4.209e+00
6.238e-01,4.243e+00
6.275e-01,4.444e+00
6.313e-01,4.557e+00
6.351e-01,4.655e+00
6.389e-01,4.910e+00
6.427e-01,5.057e+00
6.464e-01,5.177e+00
6.502e-01,5.270e+00
6.540e-01,5.229e+00
6.578e-01,5.403e+00
6.616e-01,5.465e+00
6.653e-01,5.591e+00
6.691e-01,5.559e+00
6.729e-01,5.540e+00
6.767e-01,5.494e+00
6.805e-01,5.587e+00
6.843e-01,5.536e+00
6.880e-01,5.591e+00
6.918e-01,5.437e+00
6.956e-01,5.378e+00
6.994e-01,5.387e+00
7.032e-01,5.277e+00
7.069e-01,5.107e+00
7.107e-01,5.004e+00
7.145e-01,4.683e+00
7.183e-01,4.792e+00
7.221e-01,4.491e+00
7.259e-01,4.380e+00
7.296e-01,4.195e+00
7.334e-01,4.081e+00
7.372e-01,3.787e+00
7.410e-01,3.637e+00
7.448e-01,3.461e+00
7.485e-01,3.205e+00
7.523e-01,3.050e+00
7.561e-01,2.905e+00
7.599e-01,2.655e+00
7.637e-01,2.508e+00
7.674e-01,2.395e+00
7.712e-01,2.079e+00
7.750e-01,1.885e+00
7.788e-01,1.801e+00
7.826e-01,1.618e+00
7.864e-01,1.456e+00
7.901e-01,1.326e+00
7.939e-01,1.174e+00
7.977e-01,9.760e-01
8.015e-01,9.335e-01
8.053e-01,8.273e-01
8.090e-01,6.676e-01
8.128e-01,6.303e-01
8.166e-01,5.305e-01
8.204e-01,4.590e-01
8.242e-01,3.599e-01
8.279e-01,3.348e-01
8.317e-01,2.646e-01
8.355e-01,2.137e-01
8.393e-01,1.886e-01
8.431e-01,1.384e-01
8.469e-01,1.043e-01
8.506e-01,9.721e-02
8.544e-01,8.112e-02
8.582e-01,5.344e-02
8.620e-01,4.893e-02
8.658e-01,3.477e-02
8.695e-01,1.867e-02
8.733e-01,2.640e-02
8.771e-01,1.288e-02
8.809e-01,9.013e-03
8.847e-01,7.726e-03
8.884e-01,5.150e-03
8.922e-01,3.863e-03
8.960e-01,1.288e-03
8.998e-01,6.438e-04
9.036e-01,1.288e-03
9.074e-01,1.931e-03
9.111e-01,6.438e-04
9.149e-01,0.000e+00
9.187e-01,0.000e+00
9.225e-01,0.000e+00
9.263e-01,0.000e+00
9.300e-01,0.000e+00
9.338e-01,0.000e+00
9.376e-01,0.000e+00
9.414e-01,0.000e+00
9.452e-01,0.000e+00
9.490e-01,0.000e+00
9.527e-01,0.000e+00
9.565e-01,0.000e+00
9.603e-01,0.000e+00
9.641e-01,0.000e+00
9.679e-01,0.000e+00
9.716e-01,0.000e+00
9.754e-01,0.000e+00
9.792e-01,0.000e+00
9.830e-01,0.000e+00
9.868e-01,0.000e+00
9.905e-01,0.000e+00
9.943e-01,0.000e+00
9.981e-01,0.000e+00
