transmittance,probability_density
2.088e-01,0.000e+00
2.128e-01,0.000e+00
2.167e-01,0.000e+00
2.207e-01,0.000e+00
2.247e-01,0.000e+00
2.286e-01,6.138e-04
2.326e-01,0.000e+00
2.366e-01,0.000e+00
2.405e-01,0.000e+00
2.445e-01,0.000e+00
2.485e-01,0.000e+00
2.524e-01,0.000e+00
2.564e-01,0.000e+00
2.604e-01,0.000e+00
2.643e-01,6.138e-04
2.683e-01,0.000e+00
2.723e-01,1.228e-03
2.762e-01,0.000e+00
2.802e-01,0.000e+00
2.842e-01,1.228e-03
2.881e-01,0.000e+00
2.921e-01,1.228e-03
2.961e-01,0.000e+00
3.000e-01,1.842e-03
3.040e-01,6.138e-04
3.079e-01,1.842e-03
3.119e-01,6.138e-04
3.159e-01,6.138e-04
3.198e-01,3.069e-03
3.238e-01,2.455e-03
3.278e-01,6.138e-03
3.317e-01,5.525e-03
3.357e-01,5.525e-03
3.397e-01,9.821e-03
3.436e-01,8.594e-03
3.476e-01,7.366e-03
3.516e-01,1.596e-02
3.555e-01,1.596e-02
3.595e-01,1.596e-02
3.635e-01,2.271e-02
3.674e-01,2.517e-02
3.714e-01,2.946e-02
3.754e-01,3.069e-02
3.793e-01,3.376e-02
3.833e-01,4.051e-02
3.873e-01,4.665e-02
3.912e-01,6.077e-02
3.952e-01,6.261e-02
3.992e-01,8.287e-02
4.031e-01,7.305e-02
4.071e-01,9.760e-02
4.111e-01,1.203e-01
4.150e-01,1.381e-01
4.190e-01,1.252e-01
4.230e-01,1.860e-01
4.269e-01,1.854e-01
4.309e-01,1.940e-01
4.349e-01,2.265e-01
4.388e-01,2.425e-01
4.428e-01,3.032e-01
4.468e-01,3.235e-01
4.507e-01,4.064e-01
4.547e-01,4.107e-01
4.587e-01,4.573e-01
4.626e-01,4.911e-01
4.666e-01,5.733e-01
4.706e-01,6.145e-01
4.745e-01,7.065e-01
4.785e-01,7.440e-01
4.824e-01,8.526e-01
4.864e-01,8.870e-01
4.904e-01,1.012e+00
4.943e-01,1.075e+00
4.983e-01,1.243e+00
5.023e-01,1.294e+00
5.062e-01,1.431e+00
5.102e-01,1.554e+00
5.142e-01,1.710e+00
5.181e-01,1.784e+00
5.221e-01,1.852e+00
5.261e-01,2.067e+00
5.300e-01,2.280e+00
5.340e-01,2.313e+00
5.380e-01,2.514e+00
5.419e-01,2.646e+00
5.459e-01,2.743e+00
5.499e-01,2.972e+00
5.538e-01,3.107e+00
5.578e-01,3.178e+00
5.618e-01,3.509e+00
5.657e-01,3.662e+00
5.697e-01,3.800e+00
5.737e-01,3.895e+00
5.776e-01,4.090e+00
5.816e-01,4.189e+00
5.856e-01,4.368e+00
5.895e-01,4.557e+00
5.935e-01,4.528e+00
5.975e-01,4.879e+00
6.014e-01,4.959e+00
6.054e-01,4.838e+00
6.094e-01,5.173e+00
6.133e-01,5.273e+00
6.173e-01,5.187e+00
6.213e-01,5.344e+00
6.252e-01,5.308e+00
6.292e-01,5.140e+00
6.332e-01,5.388e+00
6.371e-01,5.371e+00
6.411e-01,5.278e+00
6.451e-01,5.336e+00
6.490e-01,5.151e+00
6.530e-01,5.229e+00
6.569e-01,5.146e+00
6.609e-01,4.903e+00
6.649e-01,5.019e+00
6.688e-01,4.859e+00
6.728e-01,4.588e+00
6.768e-01,4.492e+00
6.807e-01,4.418e+00
6.847e-01,4.195e+00
6.887e-01,4.051e+00
6.926e-01,3.911e+00
6.966e-01,3.679e+00
7.006e-01,3.572e+00
7.045e-01,3.364e+00
7.085e-01,3.069e+00
7.125e-01,3.049e+00
7.164e-01,2.867e+00
7.204e-01,2.572e+00
7.244e-01,2.474e+00
7.283e-01,2.306e+00
7.323e-01,2.109e+00
7.363e-01,1.938e+00
7.402e-01,1.805e+00
7.442e-01,1.579e+00
7.482e-01,1.495e+00
7.521e-01,1.338e+00
7.561e-01,1.180e+00
7.601e-01,1.101e+00
7.640e-01,1.005e+00
7.680e-01,8.054e-01
7.720e-01,8.005e-01
7.759e-01,6.623e-01
7.799e-01,5.574e-01
7.839e-01,5.334e-01
7.878e-01,4.684e-01
7.918e-01,3.542e-01
7.958e-01,2.989e-01
7.997e-01,2.879e-01
8.037e-01,2.296e-01
8.077e-01,1.829e-01
8.116e-01,1.461e-01
8.156e-01,1.314e-01
8.196e-01,9.699e-02
8.235e-01,7.305e-02
8.275e-01,7.612e-02
8.314e-01,5.770e-02
8.354e-01,4.542e-02
8.394e-01,3.438e-02
8.433e-01,2.271e-02
8.473e-01,1.842e-02
8.513e-01,1.596e-02
8.552e-01,1.228e-02
8.592e-01,4.911e-03
8.632e-01,6.138e-03
8.671e-01,4.297e-03
8.711e-01,4.297e-03
8.751e-01,2.455e-03
8.790e-01,0.000e+00
8.830e-01,1.228e-03
8.870e-01,1.842e-03
8.909e-01,0.000e+00
8.949e-01,1.228e-03
8.989e-01,0.000e+00
9.028e-01,0.000e+00
9.068e-01,0.000e+00
9.108e-01,0.000e+00
9.147e-01,0.000e+00
9.187e-01,0.000e+00
9.227e-01,0.000e+00
9.266e-01,0.000e+00
9.306e-01,0.000e+00
9.346e-01,0.000e+00
9.385e-01,0.000e+00
9.425e-01,0.000e+00
9.465e-01,0.000e+00
9.504e-01,0.000e+00
9.544e-01,0.000e+00
9.584e-01,0.000e+00
9.623e-01,0.000e+00
9.663e-01,0.000e+00
9.703e-01,0.000e+00
9.742e-01,0.000e+00
9.782e-01,0.000e+00
9.822e-01,0.000e+00
9.861e-01,0.000e+00
9.901e-01,0.000e+00
9.941e-01,0.000e+00
9.980e-01,0.000e+00
