transmittance,probability_density
1.253e-01,0.000e+00
1.297e-01,0.000e+00
1.341e-01,5.552e-04
1.384e-01,0.000e+00
1.428e-01,0.000e+00
1.472e-01,0.000e+00
1.516e-01,0.000e+00
1.560e-01,0.000e+00
1.604e-01,0.000e+00
1.647e-01,0.000e+00
1.691e-01,0.000e+00
1.735e-01,1.110e-03
1.779e-01,0.000e+00
1.823e-01,5.552e-04
1.867e-01,5.552e-04
1.911e-01,0.000e+00
1.954e-01,5.552e-04
1.998e-01,2.221e-03
2.042e-01,5.552e-04
2.086e-01,2.776e-03
2.130e-01,3.887e-03
2.174e-01,7.218e-03
2.217e-01,4.997e-03
2.261e-01,7.773e-03
2.305e-01,8.884e-03
2.349e-01,8.884e-03
2.393e-01,1.055e-02
2.437e-01,1.222e-02
2.481e-01,2.443e-02
2.524e-01,2.665e-02
2.568e-01,3.331e-02
2.612e-01,3.942e-02
2.656e-01,4.053e-02
2.700e-01,6.385e-02
2.744e-01,7.329e-02
2.787e-01,8.717e-02
2.831e-01,9.883e-02
2.875e-01,1.011e-01
2.919e-01,1.371e-01
2.963e-01,1.643e-01
3.007e-01,1.810e-01
3.050e-01,2.193e-01
3.094e-01,2.665e-01
3.138e-01,2.598e-01
3.182e-01,3.309e-01
3.226e-01,3.953e-01
3.270e-01,4.053e-01
3.314e-01,4.858e-01
3.357e-01,5.741e-01
3.401e-01,6.452e-01
3.445e-01,6.968e-01
3.489e-01,7.601e-01
3.533e-01,9.472e-01
3.577e-01,1.018e+00
3.620e-01,1.108e+00
3.664e-01,1.243e+00
3.708e-01,1.352e+00
3.752e-01,1.434e+00
3.796e-01,1.627e+00
3.840e-01,1.818e+00
3.884e-01,1.978e+00
3.927e-01,2.122e+00
3.971e-01,2.306e+00
4.015e-01,2.435e+00
4.059e-01,2.481e+00
4.103e-01,2.781e+00
4.147e-01,3.050e+00
4.190e-01,3.164e+00
4.234e-01,3.249e+00
4.278e-01,3.479e+00
4.322e-01,3.553e+00
4.366e-01,3.802e+00
4.410e-01,4.010e+00
4.454e-01,4.224e+00
4.497e-01,4.387e+00
4.541e-01,4.536e+00
4.585e-01,4.615e+00
4.629e-01,4.662e+00
4.673e-01,4.839e+00
4.717e-01,4.901e+00
4.760e-01,5.048e+00
4.804e-01,5.125e+00
4.848e-01,5.110e+00
4.892e-01,4.980e+00
4.936e-01,5.129e+00
4.980e-01,5.090e+00
5.024e-01,5.163e+00
5.067e-01,5.095e+00
5.111e-01,5.124e+00
5.155e-01,4.829e+00
5.199e-01,4.859e+00
5.243e-01,4.834e+00
5.287e-01,4.692e+00
5.330e-01,4.656e+00
5.374e-01,4.596e+00
5.418e-01,4.450e+00
5.462e-01,4.121e+00
5.506e-01,4.136e+00
5.550e-01,3.871e+00
5.594e-01,3.662e+00
5.637e-01,3.489e+00
5.681e-01,3.414e+00
5.725e-01,3.166e+00
5.769e-01,3.027e+00
5.813e-01,2.913e+00
5.857e-01,2.813e+00
5.900e-01,2.529e+00
5.944e-01,2.356e+00
5.988e-01,2.183e+00
6.032e-01,1.952e+00
6.076e-01,1.923e+00
6.120e-01,1.755e+00
6.164e-01,1.568e+00
6.207e-01,1.451e+00
6.251e-01,1.340e+00
6.295e-01,1.180e+00
6.339e-01,1.064e+00
6.383e-01,1.024e+00
6.427e-01,8.989e-01
6.470e-01,8.217e-01
6.514e-01,7.063e-01
6.558e-01,6.124e-01
6.602e-01,5.724e-01
6.646e-01,5.114e-01
6.690e-01,4.475e-01
6.734e-01,3.587e-01
6.777e-01,3.281e-01
6.821e-01,2.882e-01
6.865e-01,2.260e-01
6.909e-01,2.127e-01
6.953e-01,1.710e-01
6.997e-01,1.610e-01
7.040e-01,1.299e-01
7.084e-01,1.055e-01
7.128e-01,8.717e-02
7.172e-01,8.051e-02
7.216e-01,6.052e-02
7.260e-01,4.719e-02
7.304e-01,5.386e-02
7.347e-01,3.887e-02
7.391e-01,2.554e-02
7.435e-01,2.554e-02
7.479e-01,1.721e-02
7.523e-01,1.222e-02
7.567e-01,1.110e-02
7.610e-01,8.884e-03
7.654e-01,5.552e-03
7.698e-01,2.221e-03
7.742e-01,5.552e-03
7.786e-01,3.887e-03
7.830e-01,2.776e-03
7.873e-01,2.221e-03
7.917e-01,1.110e-03
7.961e-01,2.221e-03
8.005e-01,1.666e-03
8.049e-01,5.552e-04
8.093e-01,5.552e-04
8.137e-01,1.110e-03
8.180e-01,1.110e-03
8.224e-01,0.000e+00
8.268e-01,5.552e-04
8.312e-01,0.000e+00
8.356e-01,0.000e+00
8.400e-01,0.000e+00
8.443e-01,0.000e+00
8.487e-01,0.000e+00
8.531e-01,0.000e+00
8.575e-01,0.000e+00
8.619e-01,0.000e+00
8.663e-01,0.000e+00
8.707e-01,0.000e+00
8.750e-01,0.000e+00
8.794e-01,0.000e+00
8.838e-01,0.000e+00
8.882e-01,0.000e+00
8.926e-01,0.000e+00
8.970e-01,0.000e+00
9.013e-01,0.000e+00
9.057e-01,0.000e+00
9.101e-01,0.000e+00
9.145e-01,0.000e+00
9.189e-01,0.000e+00
9.233e-01,0.000e+00
9.277e-01,0.000e+00
9.320e-01,0.000e+00
9.364e-01,0.000e+00
9.408e-01,0.000e+00
9.452e-01,0.000e+00
9.496e-01,0.000e+00
9.540e-01,0.000e+00
9.583e-01,0.000e+00
9.627e-01,0.000e+00
9.671e-01,0.000e+00
9.715e-01,0.000e+00
9.759e-01,0.000e+00
9.803e-01,0.000e+00
9.847e-01,0.000e+00
9.890e-01,0.000e+00
9.934e-01,0.000e+00
9.978e-01,0.000e+00
