transmittance,probability_density
4.352e-01,0.000e+00
4.381e-01,0.000e+00
4.409e-01,0.000e+00
4.437e-01,0.000e+00
4.466e-01,0.000e+00
4.494e-01,0.000e+00
4.522e-01,0.000e+00
4.550e-01,0.000e+00
4.579e-01,0.000e+00
4.607e-01,0.000e+00
4.635e-01,0.000e+00
4.664e-01,0.000e+00
4.692e-01,0.000e+00
4.720e-01,0.000e+00
4.749e-01,0.000e+00
4.777e-01,8.600e-04
4.805e-01,0.000e+00
4.834e-01,0.000e+00
4.862e-01,0.000e+00
4.890e-01,0.000e+00
4.919e-01,1.720e-03
4.947e-01,2.580e-03
4.975e-01,0.000e+00
5.003e-01,0.000e+00
5.032e-01,8.600e-04
5.060e-01,0.000e+00
5.088e-01,8.600e-04
5.117e-01,0.000e+00
5.145e-01,0.000e+00
5.173e-01,8.600e-04
5.202e-01,8.600e-04
5.230e-01,8.600e-04
5.258e-01,8.600e-04
5.287e-01,0.000e+00
5.315e-01,0.000e+00
5.343e-01,8.600e-04
5.371e-01,8.600e-04
5.400e-01,8.600e-04
5.428e-01,8.600e-04
5.456e-01,2.580e-03
5.485e-01,5.160e-03
5.513e-01,1.720e-03
5.541e-01,2.580e-03
5.570e-01,5.160e-03
5.598e-01,5.160e-03
5.626e-01,3.440e-03
5.655e-01,2.580e-03
5.683e-01,5.160e-03
5.711e-01,8.600e-03
5.739e-01,3.440e-03
5.768e-01,5.160e-03
5.796e-01,1.118e-02
5.824e-01,6.020e-03
5.853e-01,7.740e-03
5.881e-01,1.376e-02
5.909e-01,1.806e-02
5.938e-01,1.376e-02
5.966e-01,1.806e-02
5.994e-01,2.494e-02
6.023e-01,2.494e-02
6.051e-01,2.494e-02
6.079e-01,2.236e-02
6.107e-01,3.268e-02
6.136e-01,2.494e-02
6.164e-01,3.784e-02
6.192e-01,3.870e-02
6.221e-01,4.128e-02
6.249e-01,5.418e-02
6.277e-01,4.644e-02
6.306e-01,5.332e-02
6.334e-01,6.622e-02
6.362e-01,6.106e-02
6.391e-01,7.052e-02
6.419e-01,8.342e-02
6.447e-01,1.109e-01
6.476e-01,9.717e-02
6.504e-01,1.101e-01
6.532e-01,1.152e-01
6.560e-01,1.393e-01
6.589e-01,1.531e-01
6.617e-01,1.711e-01
6.645e-01,2.150e-01
6.674e-01,2.012e-01
6.702e-01,2.313e-01
6.730e-01,2.459e-01
6.759e-01,2.829e-01
6.787e-01,3.001e-01
6.815e-01,3.276e-01
6.844e-01,3.423e-01
6.872e-01,3.964e-01
6.900e-01,4.498e-01
6.928e-01,4.902e-01
6.957e-01,5.400e-01
6.985e-01,5.736e-01
7.013e-01,6.278e-01
7.042e-01,6.983e-01
7.070e-01,7.542e-01
7.098e-01,7.989e-01
7.127e-01,9.107e-01
7.155e-01,9.623e-01
7.183e-01,1.044e+00
7.212e-01,1.096e+00
7.240e-01,1.256e+00
7.268e-01,1.324e+00
7.296e-01,1.464e+00
7.325e-01,1.486e+00
7.353e-01,1.705e+00
7.381e-01,1.785e+00
7.410e-01,1.962e+00
7.438e-01,2.213e+00
7.466e-01,2.276e+00
7.495e-01,2.419e+00
7.523e-01,2.597e+00
7.551e-01,2.660e+00
7.580e-01,2.934e+00
7.608e-01,3.233e+00
7.636e-01,3.184e+00
7.664e-01,3.505e+00
7.693e-01,3.718e+00
7.721e-01,4.001e+00
7.749e-01,4.010e+00
7.778e-01,4.304e+00
7.806e-01,4.711e+00
7.834e-01,4.832e+00
7.863e-01,4.900e+00
7.891e-01,5.526e+00
7.919e-01,5.494e+00
7.948e-01,5.769e+00
7.976e-01,6.385e+00
8.004e-01,6.352e+00
8.033e-01,6.451e+00
8.061e-01,6.606e+00
8.089e-01,7.121e+00
8.117e-01,7.163e+00
8.146e-01,7.261e+00
8.174e-01,7.635e+00
8.202e-01,7.633e+00
8.231e-01,7.747e+00
8.259e-01,8.096e+00
8.287e-01,8.089e+00
8.316e-01,8.089e+00
8.344e-01,8.411e+00
8.372e-01,8.104e+00
8.401e-01,8.069e+00
8.429e-01,8.088e+00
8.457e-01,8.214e+00
8.485e-01,8.063e+00
8.514e-01,7.823e+00
8.542e-01,7.939e+00
8.570e-01,7.481e+00
8.599e-01,7.276e+00
8.627e-01,7.236e+00
8.655e-01,6.769e+00
8.684e-01,6.404e+00
8.712e-01,6.371e+00
8.740e-01,5.867e+00
8.769e-01,5.487e+00
8.797e-01,5.388e+00
8.825e-01,4.842e+00
8.853e-01,4.527e+00
8.882e-01,4.018e+00
8.910e-01,3.781e+00
8.938e-01,3.295e+00
8.967e-01,2.940e+00
8.995e-01,2.785e+00
9.023e-01,2.242e+00
9.052e-01,2.059e+00
9.080e-01,1.784e+00
9.108e-01,1.461e+00
9.137e-01,1.145e+00
9.165e-01,1.065e+00
9.193e-01,7.894e-01
9.222e-01,5.959e-01
9.250e-01,4.936e-01
9.278e-01,4.068e-01
9.306e-01,2.803e-01
9.335e-01,2.107e-01
9.363e-01,1.230e-01
9.391e-01,1.049e-01
9.420e-01,6.364e-02
9.448e-01,4.386e-02
9.476e-01,2.494e-02
9.505e-01,1.634e-02
9.533e-01,6.020e-03
9.561e-01,2.580e-03
9.590e-01,1.720e-03
9.618e-01,0.000e+00
9.646e-01,0.000e+00
9.674e-01,0.000e+00
9.703e-01,0.000e+00
9.731e-01,0.000e+00
9.759e-01,0.000e+00
9.788e-01,0.000e+00
9.816e-01,0.000e+00
9.844e-01,0.000e+00
9.873e-01,0.000e+00
9.901e-01,0.000e+00
9.929e-01,0.000e+00
9.958e-01,0.000e+00
9.986e-01,0.000e+00
