transmittance,probability_density
2.833e-01,0.000e+00
2.868e-01,0.000e+00
2.904e-01,0.000e+00
2.940e-01,0.000e+00
2.976e-01,0.000e+00
3.012e-01,0.000e+00
3.048e-01,0.000e+00
3.084e-01,6.776e-04
3.120e-01,0.000e+00
3.156e-01,0.000e+00
3.192e-01,0.000e+00
3.228e-01,0.000e+00
3.264e-01,0.000e+00
3.300e-01,0.000e+00
3.335e-01,0.000e+00
3.371e-01,6.776e-04
3.407e-01,6.776e-04
3.443e-01,0.000e+00
3.479e-01,0.000e+00
3.515e-01,1.355e-03
3.551e-01,1.355e-03
3.587e-01,0.000e+00
3.623e-01,6.776e-04
3.659e-01,0.000e+00
3.695e-01,1.355e-03
3.731e-01,0.000e+00
3.767e-01,6.776e-04
3.803e-01,0.000e+00
3.838e-01,1.355e-03
3.874e-01,0.000e+00
3.910e-01,4.743e-03
3.946e-01,1.355e-03
3.982e-01,2.033e-03
4.018e-01,1.355e-03
4.054e-01,4.066e-03
4.090e-01,3.388e-03
4.126e-01,4.066e-03
4.162e-01,8.809e-03
4.198e-01,7.454e-03
4.234e-01,1.084e-02
4.270e-01,9.486e-03
4.306e-01,1.016e-02
4.341e-01,1.694e-02
4.377e-01,1.694e-02
4.413e-01,1.626e-02
4.449e-01,2.236e-02
4.485e-01,2.507e-02
4.521e-01,2.439e-02
4.557e-01,2.643e-02
4.593e-01,3.388e-02
4.629e-01,2.981e-02
4.665e-01,5.421e-02
4.701e-01,4.201e-02
4.737e-01,4.947e-02
4.773e-01,5.895e-02
4.809e-01,7.860e-02
4.844e-01,6.234e-02
4.880e-01,7.657e-02
4.916e-01,1.050e-01
4.952e-01,1.111e-01
4.988e-01,1.220e-01
5.024e-01,1.376e-01
5.060e-01,1.613e-01
5.096e-01,1.694e-01
5.132e-01,1.918e-01
5.168e-01,2.073e-01
5.204e-01,2.338e-01
5.240e-01,2.555e-01
5.276e-01,2.941e-01
5.311e-01,3.354e-01
5.347e-01,3.693e-01
5.383e-01,3.815e-01
5.419e-01,4.486e-01
5.455e-01,4.581e-01
5.491e-01,5.143e-01
5.527e-01,5.956e-01
5.563e-01,6.613e-01
5.599e-01,6.973e-01
5.635e-01,7.630e-01
5.671e-01,8.314e-01
5.707e-01,8.734e-01
5.743e-01,1.008e+00
5.779e-01,1.093e+00
5.814e-01,1.138e+00
5.850e-01,1.300e+00
5.886e-01,1.391e+00
5.922e-01,1.514e+00
5.958e-01,1.638e+00
5.994e-01,1.844e+00
6.030e-01,1.777e+00
6.066e-01,2.023e+00
6.102e-01,2.058e+00
6.138e-01,2.271e+00
6.174e-01,2.369e+00
6.210e-01,2.507e+00
6.246e-01,2.740e+00
6.282e-01,2.806e+00
6.317e-01,2.997e+00
6.353e-01,3.218e+00
6.389e-01,3.345e+00
6.425e-01,3.580e+00
6.461e-01,3.706e+00
6.497e-01,3.820e+00
6.533e-01,4.003e+00
6.569e-01,4.336e+00
6.605e-01,4.377e+00
6.641e-01,4.442e+00
6.677e-01,4.664e+00
6.713e-01,4.900e+00
6.749e-01,4.917e+00
6.785e-01,5.081e+00
6.820e-01,5.315e+00
6.856e-01,5.497e+00
6.892e-01,5.554e+00
6.928e-01,5.599e+00
6.964e-01,5.646e+00
7.000e-01,5.802e+00
7.036e-01,5.588e+00
7.072e-01,5.890e+00
7.108e-01,5.924e+00
7.144e-01,5.826e+00
7.180e-01,5.900e+00
7.216e-01,5.877e+00
7.252e-01,5.913e+00
7.287e-01,5.800e+00
7.323e-01,5.771e+00
7.359e-01,5.629e+00
7.395e-01,5.544e+00
7.431e-01,5.456e+00
7.467e-01,5.158e+00
7.503e-01,5.182e+00
7.539e-01,4.741e+00
7.575e-01,4.812e+00
7.611e-01,4.560e+00
7.647e-01,4.447e+00
7.683e-01,4.184e+00
7.719e-01,4.112e+00
7.755e-01,3.840e+00
7.790e-01,3.582e+00
7.826e-01,3.312e+00
7.862e-01,3.197e+00
7.898e-01,3.009e+00
7.934e-01,2.825e+00
7.970e-01,2.590e+00
8.006e-01,2.206e+00
8.042e-01,2.149e+00
8.078e-01,1.984e+00
8.114e-01,1.792e+00
8.150e-01,1.582e+00
8.186e-01,1.490e+00
8.222e-01,1.233e+00
8.258e-01,1.138e+00
8.293e-01,9.907e-01
8.329e-01,8.707e-01
8.365e-01,7.433e-01
8.401e-01,6.485e-01
8.437e-01,5.638e-01
8.473e-01,4.499e-01
8.509e-01,3.835e-01
8.545e-01,3.273e-01
8.581e-01,2.785e-01
8.617e-01,2.046e-01
8.653e-01,1.674e-01
8.689e-01,1.315e-01
8.725e-01,1.104e-01
8.761e-01,8.673e-02
8.796e-01,6.912e-02
8.832e-01,4.066e-02
8.868e-01,3.456e-02
8.904e-01,3.117e-02
8.940e-01,1.897e-02
8.976e-01,1.423e-02
9.012e-01,6.776e-03
9.048e-01,9.486e-03
9.084e-01,2.710e-03
9.120e-01,1.355e-03
9.156e-01,2.033e-03
9.192e-01,2.033e-03
9.228e-01,6.776e-04
9.263e-01,6.776e-04
9.299e-01,0.000e+00
9.335e-01,0.000e+00
9.371e-01,0.000e+00
9.407e-01,0.000e+00
9.443e-01,0.000e+00
9.479e-01,0.000e+00
9.515e-01,0.000e+00
9.551e-01,0.000e+00
9.587e-01,0.000e+00
9.623e-01,0.000e+00
9.659e-01,0.000e+00
9.695e-01,0.000e+00
9.731e-01,0.000e+00
9.766e-01,0.000e+00
9.802e-01,0.000e+00
9.838e-01,0.000e+00
9.874e-01,0.000e+00
9.910e-01,0.000e+00
9.946e-01,0.000e+00
9.982e-01,0.000e+00
