transmittance,probability_density
3.114e-01,
3.148e-01,
3.183e-01,
3.217e-01,
3.252e-01,
3.286e-01,
3.321e-01,
3.355e-01,
3.390e-01,
3.424e-01,
3.459e-01,
3.493e-01,
3.528e-01,
3.562e-01,
3.597e-01,
3.631e-01,
3.666e-01,
3.700e-01,
3.735e-01,
3.769e-01,
3.804e-01,
3.839e-01,
3.873e-01,
3.908e-01,
3.942e-01,
3.977e-01,
4.011e-01,
4.046e-01,
4.080e-01,
4.115e-01,
4.149e-01,
4.184e-01,
4.218e-01,
4.253e-01,
4.287e-01,
4.322e-01,
4.356e-01,
4.391e-01,
4.425e-01,
4.460e-01,
4.494e-01,
4.529e-01,
4.563e-01,
4.598e-01,
4.632e-01,
4.667e-01,
4.701e-01,
4.736e-01,
4.770e-01,
4.805e-01,
4.840e-01,
4.874e-01,
4.909e-01,
4.943e-01,
4.978e-01,
5.012e-01,
5.047e-01,
5.081e-01,
5.116e-01,
5.150e-01,
5.185e-01,
5.219e-01,
5.254e-01,
5.288e-01,
5.323e-01,
5.357e-01,
5.392e-01,
5.426e-01,
5.461e-01,
5.495e-01,
5.530e-01,
5.564e-01,
5.599e-01,
5.633e-01,
5.668e-01,
5.702e-01,
5.737e-01,
5.772e-01,
5.806e-01,
5.841e-01,
5.875e-01,
5.910e-01,
5.944e-01,
5.979e-01,
6.013e-01,
6.048e-01,
6.082e-01,
6.117e-01,
6.151e-01,
6.186e-01,
6.220e-01,
6.255e-01,
6.289e-01,
6.324e-01,
6.358e-01,
6.393e-01,
6.427e-01,
6.462e-01,
6.496e-01,
6.531e-01,
6.565e-01,
6.600e-01,
6.634e-01,
6.669e-01,
6.704e-01,
6.738e-01,
6.773e-01,
6.807e-01,
6.842e-01,
6.876e-01,
6.911e-01,
6.945e-01,
6.980e-01,
7.014e-01,
7.049e-01,
7.083e-01,
7.118e-01,
7.152e-01,
7.187e-01,
7.221e-01,
7.256e-01,
7.290e-01,
7.325e-01,
7.359e-01,
7.394e-01,
7.428e-01,
7.463e-01,
7.497e-01,
7.532e-01,
7.566e-01,
7.601e-01,
7.636e-01,
7.670e-01,
7.705e-01,
7.739e-01,
7.774e-01,
7.808e-01,
7.843e-01,
7.877e-01,
7.912e-01,
7.946e-01,
7.981e-01,
8.015e-01,
8.050e-01,
8.084e-01,
8.119e-01,
8.153e-01,
8.188e-01,
8.222e-01,
8.257e-01,
8.291e-01,
8.326e-01,
8.360e-01,
8.395e-01,
8.429e-01,
8.464e-01,
8.498e-01,
8.533e-01,
8.567e-01,
8.602e-01,
8.637e-01,
8.671e-01,
8.706e-01,
8.740e-01,
8.775e-01,
8.809e-01,
8.844e-01,
8.878e-01,
8.913e-01,
8.947e-01,
8.982e-01,
9.016e-01,
9.051e-01,
9.085e-01,
9.120e-01,
9.154e-01,
9.189e-01,
9.223e-01,
9.258e-01,
9.292e-01,
9.327e-01,
9.361e-01,
9.396e-01,
9.430e-01,
9.465e-01,
9.499e-01,
9.534e-01,
9.569e-01,
9.603e-01,
9.638e-01,
9.672e-01,
9.707e-01,
9.741e-01,
9.776e-01,
9.810e-01,
9.845e-01,
9.879e-01,
9.914e-01,
9.948e-01,
9.983e-01,
