transmittance,probability_density
3.494e-01,
3.527e-01,
3.560e-01,
3.592e-01,
3.625e-01,
3.658e-01,
3.690e-01,
3.723e-01,
3.755e-01,
3.788e-01,
3.821e-01,
3.853e-01,
3.886e-01,
3.918e-01,
3.951e-01,
3.984e-01,
4.016e-01,
4.049e-01,
4.081e-01,
4.114e-01,
4.147e-01,
4.179e-01,
4.212e-01,
4.244e-01,
4.277e-01,
4.310e-01,
4.342e-01,
4.375e-01,
4.408e-01,
4.440e-01,
4.473e-01,
4.505e-01,
4.538e-01,
4.571e-01,
4.603e-01,
4.636e-01,
4.668e-01,
4.701e-01,
4.734e-01,
4.766e-01,
4.799e-01,
4.831e-01,
4.864e-01,
4.897e-01,
4.929e-01,
4.962e-01,
4.995e-01,
5.027e-01,
5.060e-01,
5.092e-01,
5.125e-01,
5.158e-01,
5.190e-01,
5.223e-01,
5.255e-01,
5.288e-01,
5.321e-01,
5.353e-01,
5.386e-01,
5.418e-01,
5.451e-01,
5.484e-01,
5.516e-01,
5.549e-01,
5.581e-01,
5.614e-01,
5.647e-01,
5.679e-01,
5.712e-01,
5.745e-01,
5.777e-01,
5.810e-01,
5.842e-01,
5.875e-01,
5.908e-01,
5.940e-01,
5.973e-01,
6.005e-01,
6.038e-01,
6.071e-01,
6.103e-01,
6.136e-01,
6.168e-01,
6.201e-01,
6.234e-01,
6.266e-01,
6.299e-01,
6.331e-01,
6.364e-01,
6.397e-01,
6.429e-01,
6.462e-01,
6.495e-01,
6.527e-01,
6.560e-01,
6.592e-01,
6.625e-01,
6.658e-01,
6.690e-01,
6.723e-01,
6.755e-01,
6.788e-01,
6.821e-01,
6.853e-01,
6.886e-01,
6.918e-01,
6.951e-01,
6.984e-01,
7.016e-01,
7.049e-01,
7.081e-01,
7.114e-01,
7.147e-01,
7.179e-01,
7.212e-01,
7.245e-01,
7.277e-01,
7.310e-01,
7.342e-01,
7.375e-01,
7.408e-01,
7.440e-01,
7.473e-01,
7.505e-01,
7.538e-01,
7.571e-01,
7.603e-01,
7.636e-01,
7.668e-01,
7.701e-01,
7.734e-01,
7.766e-01,
7.799e-01,
7.831e-01,
7.864e-01,
7.897e-01,
7.929e-01,
7.962e-01,
7.995e-01,
8.027e-01,
8.060e-01,
8.092e-01,
8.125e-01,
8.158e-01,
8.190e-01,
8.223e-01,
8.255e-01,
8.288e-01,
8.321e-01,
8.353e-01,
8.386e-01,
8.418e-01,
8.451e-01,
8.484e-01,
8.516e-01,
8.549e-01,
8.582e-01,
8.614e-01,
8.647e-01,
8.679e-01,
8.712e-01,
8.745e-01,
8.777e-01,
8.810e-01,
8.842e-01,
8.875e-01,
8.908e-01,
8.940e-01,
8.973e-01,
9.005e-01,
9.038e-01,
9.071e-01,
9.103e-01,
9.136e-01,
9.168e-01,
9.201e-01,
9.234e-01,
9.266e-01,
9.299e-01,
9.332e-01,
9.364e-01,
9.397e-01,
9.429e-01,
9.462e-01,
9.495e-01,
9.527e-01,
9.560e-01,
9.592e-01,
9.625e-01,
9.658e-01,
9.690e-01,
9.723e-01,
9.755e-01,
9.788e-01,
9.821e-01,
9.853e-01,
9.886e-01,
9.918e-01,
9.951e-01,
9.984e-01,
