transmittance,probability_density
4.722e-01,
4.749e-01,
4.775e-01,
4.802e-01,
4.828e-01,
4.855e-01,
4.881e-01,
4.908e-01,
4.934e-01,
4.960e-01,
4.987e-01,
5.013e-01,
5.040e-01,
5.066e-01,
5.093e-01,
5.119e-01,
5.146e-01,
5.172e-01,
5.198e-01,
5.225e-01,
5.251e-01,
5.278e-01,
5.304e-01,
5.331e-01,
5.357e-01,
5.384e-01,
5.410e-01,
5.437e-01,
5.463e-01,
5.490e-01,
5.516e-01,
5.542e-01,
5.569e-01,
5.595e-01,
5.622e-01,
5.648e-01,
5.675e-01,
5.701e-01,
5.728e-01,
5.754e-01,
5.780e-01,
5.807e-01,
5.833e-01,
5.860e-01,
5.886e-01,
5.913e-01,
5.939e-01,
5.966e-01,
5.992e-01,
6.019e-01,
6.045e-01,
6.071e-01,
6.098e-01,
6.124e-01,
6.151e-01,
6.177e-01,
6.204e-01,
6.230e-01,
6.257e-01,
6.283e-01,
6.310e-01,
6.336e-01,
6.362e-01,
6.389e-01,
6.415e-01,
6.442e-01,
6.468e-01,
6.495e-01,
6.521e-01,
6.548e-01,
6.574e-01,
6.601e-01,
6.627e-01,
6.653e-01,
6.680e-01,
6.706e-01,
6.733e-01,
6.759e-01,
6.786e-01,
6.812e-01,
6.839e-01,
6.865e-01,
6.892e-01,
6.918e-01,
6.945e-01,
6.971e-01,
6.997e-01,
7.024e-01,
7.050e-01,
7.077e-01,
7.103e-01,
7.130e-01,
7.156e-01,
7.183e-01,
7.209e-01,
7.236e-01,
7.262e-01,
7.288e-01,
7.315e-01,
7.341e-01,
7.368e-01,
7.394e-01,
7.421e-01,
7.447e-01,
7.474e-01,
7.500e-01,
7.527e-01,
7.553e-01,
7.579e-01,
7.606e-01,
7.632e-01,
7.659e-01,
7.685e-01,
7.712e-01,
7.738e-01,
7.765e-01,
7.791e-01,
7.817e-01,
7.844e-01,
7.870e-01,
7.897e-01,
7.923e-01,
7.950e-01,
7.976e-01,
8.003e-01,
8.029e-01,
8.056e-01,
8.082e-01,
8.108e-01,
8.135e-01,
8.161e-01,
8.188e-01,
8.214e-01,
8.241e-01,
8.267e-01,
8.294e-01,
8.320e-01,
8.347e-01,
8.373e-01,
8.399e-01,
8.426e-01,
8.452e-01,
8.479e-01,
8.505e-01,
8.532e-01,
8.558e-01,
8.585e-01,
8.611e-01,
8.638e-01,
8.664e-01,
8.690e-01,
8.717e-01,
8.743e-01,
8.770e-01,
8.796e-01,
8.823e-01,
8.849e-01,
8.876e-01,
8.902e-01,
8.929e-01,
8.955e-01,
8.982e-01,
9.008e-01,
9.034e-01,
9.061e-01,
9.087e-01,
9.114e-01,
9.140e-01,
9.167e-01,
9.193e-01,
9.220e-01,
9.246e-01,
9.273e-01,
9.299e-01,
9.325e-01,
9.352e-01,
9.378e-01,
9.405e-01,
9.431e-01,
9.458e-01,
9.484e-01,
9.511e-01,
9.537e-01,
9.564e-01,
9.590e-01,
9.616e-01,
9.643e-01,
9.669e-01,
9.696e-01,
9.722e-01,
9.749e-01,
9.775e-01,
9.802e-01,
9.828e-01,
9.855e-01,
9.881e-01,
9.907e-01,
9.934e-01,
9.960e-01,
9.987e-01,
