transmittance,probability_density
7.898e-01,
7.909e-01,
7.919e-01,
7.930e-01,
7.940e-01,
7.951e-01,
7.961e-01,
7.972e-01,
7.982e-01,
7.993e-01,
8.003e-01,
8.014e-01,
8.024e-01,
8.035e-01,
8.046e-01,
8.056e-01,
8.067e-01,
8.077e-01,
8.088e-01,
8.098e-01,
8.109e-01,
8.119e-01,
8.130e-01,
8.140e-01,
8.151e-01,
8.161e-01,
8.172e-01,
8.182e-01,
8.193e-01,
8.204e-01,
8.214e-01,
8.225e-01,
8.235e-01,
8.246e-01,
8.256e-01,
8.267e-01,
8.277e-01,
8.288e-01,
8.298e-01,
8.309e-01,
8.319e-01,
8.330e-01,
8.341e-01,
8.351e-01,
8.362e-01,
8.372e-01,
8.383e-01,
8.393e-01,
8.404e-01,
8.414e-01,
8.425e-01,
8.435e-01,
8.446e-01,
8.456e-01,
8.467e-01,
8.477e-01,
8.488e-01,
8.499e-01,
8.509e-01,
8.520e-01,
8.530e-01,
8.541e-01,
8.551e-01,
8.562e-01,
8.572e-01,
8.583e-01,
8.593e-01,
8.604e-01,
8.614e-01,
8.625e-01,
8.636e-01,
8.646e-01,
8.657e-01,
8.667e-01,
8.678e-01,
8.688e-01,
8.699e-01,
8.709e-01,
8.720e-01,
8.730e-01,
8.741e-01,
8.751e-01,
8.762e-01,
8.773e-01,
8.783e-01,
8.794e-01,
8.804e-01,
8.815e-01,
8.825e-01,
8.836e-01,
8.846e-01,
8.857e-01,
8.867e-01,
8.878e-01,
8.888e-01,
8.899e-01,
8.909e-01,
8.920e-01,
8.931e-01,
8.941e-01,
8.952e-01,
8.962e-01,
8.973e-01,
8.983e-01,
8.994e-01,
9.004e-01,
9.015e-01,
9.025e-01,
9.036e-01,
9.046e-01,
9.057e-01,
9.068e-01,
9.078e-01,
9.089e-01,
9.099e-01,
9.110e-01,
9.120e-01,
9.131e-01,
9.141e-01,
9.152e-01,
9.162e-01,
9.173e-01,
9.183e-01,
9.194e-01,
9.205e-01,
9.215e-01,
9.226e-01,
9.236e-01,
9.247e-01,
9.257e-01,
9.268e-01,
9.278e-01,
9.289e-01,
9.299e-01,
9.310e-01,
9.320e-01,
9.331e-01,
9.341e-01,
9.352e-01,
9.363e-01,
9.373e-01,
9.384e-01,
9.394e-01,
9.405e-01,
9.415e-01,
9.426e-01,
9.436e-01,
9.447e-01,
9.457e-01,
9.468e-01,
9.478e-01,
9.489e-01,
9.500e-01,
9.510e-01,
9.521e-01,
9.531e-01,
9.542e-01,
9.552e-01,
9.563e-01,
9.573e-01,
9.584e-01,
9.594e-01,
9.605e-01,
9.615e-01,
9.626e-01,
9.636e-01,
9.647e-01,
9.658e-01,
9.668e-01,
9.679e-01,
9.689e-01,
9.700e-01,
9.710e-01,
9.721e-01,
9.731e-01,
9.742e-01,
9.752e-01,
9.763e-01,
9.773e-01,
9.784e-01,
9.795e-01,
9.805e-01,
9.816e-01,
9.826e-01,
9.837e-01,
9.847e-01,
9.858e-01,
9.868e-01,
9.879e-01,
9.889e-01,
9.900e-01,
9.910e-01,
9.921e-01,
9.932e-01,
9.942e-01,
9.953e-01,
9.963e-01,
9.974e-01,
9.984e-01,
9.995e-01,
