transmittance,probability_density
6.245e-04,0.000e+00
1.874e-03,0.000e+00
3.123e-03,0.000e+00
4.372e-03,0.000e+00
5.621e-03,0.000e+00
6.870e-03,0.000e+00
8.119e-03,0.000e+00
9.368e-03,0.000e+00
1.062e-02,0.000e+00
1.187e-02,0.000e+00
1.312e-02,0.000e+00
1.436e-02,0.000e+00
1.561e-02,0.000e+00
1.686e-02,0.000e+00
1.811e-02,0.000e+00
1.936e-02,0.000e+00
2.061e-02,0.000e+00
2.186e-02,0.000e+00
2.311e-02,0.000e+00
2.436e-02,0.000e+00
2.561e-02,0.000e+00
2.685e-02,0.000e+00
2.810e-02,0.000e+00
2.935e-02,8.006e-03
3.060e-02,1.601e-02
3.185e-02,8.006e-03
3.310e-02,2.402e-02
3.435e-02,1.601e-02
3.560e-02,4.003e-02
3.685e-02,1.361e-01
3.810e-02,1.361e-01
3.935e-02,1.361e-01
4.059e-02,3.523e-01
4.184e-02,2.882e-01
4.309e-02,6.245e-01
4.434e-02,7.045e-01
4.559e-02,1.137e+00
4.684e-02,1.593e+00
4.809e-02,2.650e+00
4.934e-02,3.242e+00
5.059e-02,4.371e+00
5.184e-02,6.053e+00
5.308e-02,8.110e+00
5.433e-02,1.020e+01
5.558e-02,1.233e+01
5.683e-02,1.589e+01
5.808e-02,1.869e+01
5.933e-02,2.129e+01
6.058e-02,2.451e+01
6.183e-02,2.731e+01
6.308e-02,3.054e+01
6.433e-02,3.423e+01
6.558e-02,3.441e+01
6.682e-02,3.621e+01
6.807e-02,3.720e+01
6.932e-02,3.758e+01
7.057e-02,3.844e+01
7.182e-02,3.688e+01
7.307e-02,3.497e+01
7.432e-02,3.395e+01
7.557e-02,3.200e+01
7.682e-02,3.000e+01
7.807e-02,2.740e+01
7.931e-02,2.544e+01
8.056e-02,2.218e+01
8.181e-02,2.130e+01
8.306e-02,1.765e+01
8.431e-02,1.640e+01
8.556e-02,1.437e+01
8.681e-02,1.265e+01
8.806e-02,1.054e+01
8.931e-02,9.415e+00
9.056e-02,7.646e+00
9.181e-02,7.334e+00
9.305e-02,5.492e+00
9.430e-02,4.451e+00
9.555e-02,4.011e+00
9.680e-02,3.186e+00
9.805e-02,2.922e+00
9.930e-02,2.266e+00
1.005e-01,1.841e+00
1.018e-01,1.545e+00
1.030e-01,1.241e+00
1.043e-01,1.057e+00
1.055e-01,8.647e-01
1.068e-01,6.165e-01
1.080e-01,5.124e-01
1.093e-01,3.923e-01
1.105e-01,3.443e-01
1.118e-01,2.482e-01
1.130e-01,2.242e-01
1.143e-01,1.361e-01
1.155e-01,1.201e-01
1.168e-01,6.405e-02
1.180e-01,1.601e-01
1.193e-01,1.121e-01
1.205e-01,1.601e-02
1.218e-01,4.804e-02
1.230e-01,3.202e-02
1.243e-01,8.006e-03
1.255e-01,2.402e-02
1.268e-01,8.006e-03
1.280e-01,2.402e-02
1.293e-01,0.000e+00
1.305e-01,2.402e-02
1.318e-01,8.006e-03
1.330e-01,0.000e+00
1.343e-01,0.000e+00
1.355e-01,0.000e+00
1.368e-01,0.000e+00
1.380e-01,0.000e+00
1.393e-01,0.000e+00
1.405e-01,8.006e-03
1.418e-01,0.000e+00
1.430e-01,0.000e+00
1.443e-01,0.000e+00
1.455e-01,8.006e-03
1.468e-01,0.000e+00
1.480e-01,0.000e+00
1.493e-01,0.000e+00
1.505e-01,0.000e+00
1.518e-01,0.000e+00
1.530e-01,0.000e+00
1.543e-01,0.000e+00
1.555e-01,0.000e+00
1.568e-01,0.000e+00
1.580e-01,0.000e+00
1.593e-01,0.000e+00
1.605e-01,0.000e+00
1.618e-01,0.000e+00
1.630e-01,0.000e+00
1.643e-01,0.000e+00
1.655e-01,0.000e+00
1.667e-01,0.000e+00
1.680e-01,0.000e+00
1.692e-01,0.000e+00
1.705e-01,0.000e+00
1.717e-01,0.000e+00
1.730e-01,0.000e+00
1.742e-01,0.000e+00
1.755e-01,0.000e+00
1.767e-01,0.000e+00
1.780e-01,0.000e+00
1.792e-01,0.000e+00
1.805e-01,0.000e+00
1.817e-01,0.000e+00
1.830e-01,0.000e+00
1.842e-01,0.000e+00
1.855e-01,0.000e+00
1.867e-01,0.000e+00
1.880e-01,0.000e+00
1.892e-01,0.000e+00
1.905e-01,0.000e+00
1.917e-01,0.000e+00
1.930e-01,0.000e+00
1.942e-01,0.000e+00
1.955e-01,0.000e+00
1.967e-01,0.000e+00
1.980e-01,0.000e+00
1.992e-01,0.000e+00
2.005e-01,0.000e+00
2.017e-01,0.000e+00
2.030e-01,0.000e+00
2.042e-01,0.000e+00
2.055e-01,0.000e+00
2.067e-01,0.000e+00
2.080e-01,0.000e+00
2.092e-01,0.000e+00
2.105e-01,0.000e+00
2.117e-01,0.000e+00
2.130e-01,0.000e+00
2.142e-01,0.000e+00
2.155e-01,0.000e+00
2.167e-01,0.000e+00
2.180e-01,0.000e+00
2.192e-01,0.000e+00
2.205e-01,0.000e+00
2.217e-01,0.000e+00
2.230e-01,0.000e+00
2.242e-01,0.000e+00
2.255e-01,0.000e+00
2.267e-01,0.000e+00
2.280e-01,0.000e+00
2.292e-01,0.000e+00
2.304e-01,0.000e+00
2.317e-01,0.000e+00
2.329e-01,0.000e+00
2.342e-01,0.000e+00
2.354e-01,0.000e+00
2.367e-01,0.000e+00
2.379e-01,0.000e+00
2.392e-01,0.000e+00
2.404e-01,0.000e+00
2.417e-01,0.000e+00
2.429e-01,0.000e+00
2.442e-01,0.000e+00
2.454e-01,0.000e+00
2.467e-01,0.000e+00
2.479e-01,0.000e+00
2.492e-01,0.000e+00
