transmittance,probability_density
8.344e-04,0.000e+00
2.503e-03,0.000e+00
4.172e-03,0.000e+00
5.840e-03,0.000e+00
7.509e-03,0.000e+00
9.178e-03,0.000e+00
1.085e-02,0.000e+00
1.252e-02,0.000e+00
1.418e-02,0.000e+00
1.585e-02,0.000e+00
1.752e-02,0.000e+00
1.919e-02,0.000e+00
2.086e-02,0.000e+00
2.253e-02,0.000e+00
2.420e-02,0.000e+00
2.586e-02,0.000e+00
2.753e-02,0.000e+00
2.920e-02,0.000e+00
3.087e-02,0.000e+00
3.254e-02,0.000e+00
3.421e-02,0.000e+00
3.588e-02,0.000e+00
3.755e-02,0.000e+00
3.921e-02,0.000e+00
4.088e-02,5.993e-03
4.255e-02,0.000e+00
4.422e-02,1.199e-02
4.589e-02,1.798e-02
4.756e-02,5.993e-03
4.923e-02,1.199e-02
5.090e-02,2.996e-02
5.256e-02,1.019e-01
5.423e-02,1.019e-01
5.590e-02,9.588e-02
5.757e-02,2.697e-01
5.924e-02,2.038e-01
6.091e-02,4.075e-01
6.258e-02,5.094e-01
6.424e-02,7.311e-01
6.591e-02,1.031e+00
6.758e-02,1.744e+00
6.925e-02,2.103e+00
7.092e-02,2.841e+00
7.259e-02,3.853e+00
7.426e-02,5.357e+00
7.593e-02,6.244e+00
7.759e-02,8.312e+00
7.926e-02,9.972e+00
8.093e-02,1.230e+01
8.260e-02,1.414e+01
8.427e-02,1.608e+01
8.594e-02,1.806e+01
8.761e-02,2.008e+01
8.928e-02,2.271e+01
9.094e-02,2.456e+01
9.261e-02,2.515e+01
9.428e-02,2.613e+01
9.595e-02,2.681e+01
9.762e-02,2.728e+01
9.929e-02,2.776e+01
1.010e-01,2.674e+01
1.026e-01,2.532e+01
1.043e-01,2.464e+01
1.060e-01,2.334e+01
1.076e-01,2.207e+01
1.093e-01,2.045e+01
1.110e-01,1.885e+01
1.126e-01,1.668e+01
1.143e-01,1.574e+01
1.160e-01,1.336e+01
1.176e-01,1.205e+01
1.193e-01,1.125e+01
1.210e-01,9.738e+00
1.226e-01,8.420e+00
1.243e-01,7.041e+00
1.260e-01,6.083e+00
1.277e-01,5.657e+00
1.293e-01,4.740e+00
1.310e-01,3.614e+00
1.327e-01,3.242e+00
1.343e-01,2.553e+00
1.360e-01,2.313e+00
1.377e-01,2.061e+00
1.393e-01,1.522e+00
1.410e-01,1.282e+00
1.427e-01,9.948e-01
1.443e-01,9.169e-01
1.460e-01,7.551e-01
1.477e-01,5.753e-01
1.493e-01,4.435e-01
1.510e-01,3.356e-01
1.527e-01,3.116e-01
1.544e-01,2.277e-01
1.560e-01,1.798e-01
1.577e-01,1.678e-01
1.594e-01,1.019e-01
1.610e-01,9.588e-02
1.627e-01,3.596e-02
1.644e-01,1.139e-01
1.660e-01,8.390e-02
1.677e-01,1.798e-02
1.694e-01,2.996e-02
1.710e-01,2.397e-02
1.727e-01,5.993e-03
1.744e-01,1.798e-02
1.760e-01,5.993e-03
1.777e-01,1.798e-02
1.794e-01,0.000e+00
1.811e-01,1.798e-02
1.827e-01,5.993e-03
1.844e-01,0.000e+00
1.861e-01,0.000e+00
1.877e-01,0.000e+00
1.894e-01,0.000e+00
1.911e-01,0.000e+00
1.927e-01,0.000e+00
1.944e-01,5.993e-03
1.961e-01,0.000e+00
1.977e-01,0.000e+00
1.994e-01,0.000e+00
2.011e-01,5.993e-03
2.027e-01,0.000e+00
2.044e-01,0.000e+00
2.061e-01,0.000e+00
2.078e-01,0.000e+00
2.094e-01,0.000e+00
2.111e-01,0.000e+00
2.128e-01,0.000e+00
2.144e-01,0.000e+00
2.161e-01,0.000e+00
2.178e-01,0.000e+00
2.194e-01,0.000e+00
2.211e-01,0.000e+00
2.228e-01,0.000e+00
2.244e-01,0.000e+00
2.261e-01,0.000e+00
2.278e-01,0.000e+00
2.294e-01,0.000e+00
2.311e-01,0.000e+00
2.328e-01,0.000e+00
2.345e-01,0.000e+00
2.361e-01,0.000e+00
2.378e-01,0.000e+00
2.395e-01,0.000e+00
2.411e-01,0.000e+00
2.428e-01,0.000e+00
2.445e-01,0.000e+00
2.461e-01,0.000e+00
2.478e-01,0.000e+00
2.495e-01,0.000e+00
2.511e-01,0.000e+00
2.528e-01,0.000e+00
2.545e-01,0.000e+00
2.561e-01,0.000e+00
2.578e-01,0.000e+00
2.595e-01,0.000e+00
2.612e-01,0.000e+00
2.628e-01,0.000e+00
2.645e-01,0.000e+00
2.662e-01,0.000e+00
2.678e-01,0.000e+00
2.695e-01,0.000e+00
2.712e-01,0.000e+00
2.728e-01,0.000e+00
2.745e-01,0.000e+00
2.762e-01,0.000e+00
2.778e-01,0.000e+00
2.795e-01,0.000e+00
2.812e-01,0.000e+00
2.828e-01,0.000e+00
2.845e-01,0.000e+00
2.862e-01,0.000e+00
2.879e-01,0.000e+00
2.895e-01,0.000e+00
2.912e-01,0.000e+00
2.929e-01,0.000e+00
2.945e-01,0.000e+00
2.962e-01,0.000e+00
2.979e-01,0.000e+00
2.995e-01,0.000e+00
3.012e-01,0.000e+00
3.029e-01,0.000e+00
3.045e-01,0.000e+00
3.062e-01,0.000e+00
3.079e-01,0.000e+00
3.095e-01,0.000e+00
3.112e-01,0.000e+00
3.129e-01,0.000e+00
3.145e-01,0.000e+00
3.162e-01,0.000e+00
3.179e-01,0.000e+00
3.196e-01,0.000e+00
3.212e-01,0.000e+00
3.229e-01,0.000e+00
3.246e-01,0.000e+00
3.262e-01,0.000e+00
3.279e-01,0.000e+00
3.296e-01,0.000e+00
3.312e-01,0.000e+00
3.329e-01,0.000e+00
