transmittance,probability_density
1.103e-04,0.000e+00
3.308e-04,0.000e+00
5.514e-04,0.000e+00
7.719e-04,0.000e+00
9.925e-04,0.000e+00
1.213e-03,0.000e+00
1.434e-03,0.000e+00
1.654e-03,0.000e+00
1.875e-03,0.000e+00
2.095e-03,0.000e+00
2.316e-03,0.000e+00
2.536e-03,0.000e+00
2.757e-03,0.000e+00
2.977e-03,0.000e+00
3.198e-03,0.000e+00
3.419e-03,0.000e+00
3.639e-03,0.000e+00
3.860e-03,0.000e+00
4.080e-03,0.000e+00
4.301e-03,0.000e+00
4.521e-03,4.534e-02
4.742e-03,9.068e-02
4.962e-03,0.000e+00
5.183e-03,1.360e-01
5.403e-03,9.068e-02
5.624e-03,2.267e-01
5.845e-03,3.627e-01
6.065e-03,1.088e+00
6.286e-03,9.522e-01
6.506e-03,1.768e+00
6.727e-03,1.904e+00
6.947e-03,3.446e+00
7.168e-03,4.579e+00
7.388e-03,6.529e+00
7.609e-03,1.079e+01
7.830e-03,1.655e+01
8.050e-03,2.176e+01
8.271e-03,2.920e+01
8.491e-03,4.049e+01
8.712e-03,5.300e+01
8.932e-03,6.765e+01
9.153e-03,8.565e+01
9.373e-03,1.060e+02
9.594e-03,1.197e+02
9.814e-03,1.427e+02
1.004e-02,1.579e+02
1.026e-02,1.776e+02
1.048e-02,1.992e+02
1.070e-02,2.073e+02
1.092e-02,2.143e+02
1.114e-02,2.202e+02
1.136e-02,2.224e+02
1.158e-02,2.262e+02
1.180e-02,2.166e+02
1.202e-02,2.033e+02
1.224e-02,1.994e+02
1.246e-02,1.870e+02
1.268e-02,1.721e+02
1.290e-02,1.577e+02
1.312e-02,1.390e+02
1.334e-02,1.289e+02
1.356e-02,1.135e+02
1.378e-02,9.776e+01
1.400e-02,9.173e+01
1.423e-02,7.749e+01
1.445e-02,6.837e+01
1.467e-02,5.550e+01
1.489e-02,4.688e+01
1.511e-02,4.434e+01
1.533e-02,3.541e+01
1.555e-02,2.680e+01
1.577e-02,2.467e+01
1.599e-02,1.873e+01
1.621e-02,1.755e+01
1.643e-02,1.424e+01
1.665e-02,1.134e+01
1.687e-02,8.887e+00
1.709e-02,7.345e+00
1.731e-02,6.076e+00
1.753e-02,5.033e+00
1.775e-02,3.763e+00
1.797e-02,3.129e+00
1.820e-02,2.086e+00
1.842e-02,2.086e+00
1.864e-02,1.451e+00
1.886e-02,1.088e+00
1.908e-02,1.043e+00
1.930e-02,7.255e-01
1.952e-02,4.081e-01
1.974e-02,9.068e-01
1.996e-02,5.894e-01
2.018e-02,1.360e-01
2.040e-02,2.720e-01
2.062e-02,1.360e-01
2.084e-02,9.068e-02
2.106e-02,4.534e-02
2.128e-02,1.360e-01
2.150e-02,1.360e-01
2.172e-02,0.000e+00
2.194e-02,1.360e-01
2.217e-02,4.534e-02
2.239e-02,0.000e+00
2.261e-02,0.000e+00
2.283e-02,0.000e+00
2.305e-02,0.000e+00
2.327e-02,0.000e+00
2.349e-02,0.000e+00
2.371e-02,0.000e+00
2.393e-02,4.534e-02
2.415e-02,0.000e+00
2.437e-02,0.000e+00
2.459e-02,4.534e-02
2.481e-02,0.000e+00
2.503e-02,0.000e+00
2.525e-02,0.000e+00
2.547e-02,0.000e+00
2.569e-02,0.000e+00
2.591e-02,0.000e+00
2.614e-02,0.000e+00
2.636e-02,0.000e+00
2.658e-02,0.000e+00
2.680e-02,0.000e+00
2.702e-02,0.000e+00
2.724e-02,0.000e+00
2.746e-02,0.000e+00
2.768e-02,0.000e+00
2.790e-02,0.000e+00
2.812e-02,0.000e+00
2.834e-02,0.000e+00
2.856e-02,0.000e+00
2.878e-02,0.000e+00
2.900e-02,0.000e+00
2.922e-02,0.000e+00
2.944e-02,0.000e+00
2.966e-02,0.000e+00
2.988e-02,0.000e+00
3.011e-02,0.000e+00
3.033e-02,0.000e+00
3.055e-02,0.000e+00
3.077e-02,0.000e+00
3.099e-02,0.000e+00
3.121e-02,0.000e+00
3.143e-02,0.000e+00
3.165e-02,0.000e+00
3.187e-02,0.000e+00
3.209e-02,0.000e+00
3.231e-02,0.000e+00
3.253e-02,0.000e+00
3.275e-02,0.000e+00
3.297e-02,0.000e+00
3.319e-02,0.000e+00
3.341e-02,0.000e+00
3.363e-02,0.000e+00
3.385e-02,0.000e+00
3.407e-02,0.000e+00
3.430e-02,0.000e+00
3.452e-02,0.000e+00
3.474e-02,0.000e+00
3.496e-02,0.000e+00
3.518e-02,0.000e+00
3.540e-02,0.000e+00
3.562e-02,0.000e+00
3.584e-02,0.000e+00
3.606e-02,0.000e+00
3.628e-02,0.000e+00
3.650e-02,0.000e+00
3.672e-02,0.000e+00
3.694e-02,0.000e+00
3.716e-02,0.000e+00
3.738e-02,0.000e+00
3.760e-02,0.000e+00
3.782e-02,0.000e+00
3.804e-02,0.000e+00
3.827e-02,0.000e+00
3.849e-02,0.000e+00
3.871e-02,0.000e+00
3.893e-02,0.000e+00
3.915e-02,0.000e+00
3.937e-02,0.000e+00
3.959e-02,0.000e+00
3.981e-02,0.000e+00
4.003e-02,0.000e+00
4.025e-02,0.000e+00
4.047e-02,0.000e+00
4.069e-02,0.000e+00
4.091e-02,0.000e+00
4.113e-02,0.000e+00
4.135e-02,0.000e+00
4.157e-02,0.000e+00
4.179e-02,0.000e+00
4.201e-02,0.000e+00
4.224e-02,0.000e+00
4.246e-02,0.000e+00
4.268e-02,0.000e+00
4.290e-02,0.000e+00
4.312e-02,0.000e+00
4.334e-02,0.000e+00
4.356e-02,0.000e+00
4.378e-02,0.000e+00
4.400e-02,0.000e+00
