transmittance,probability_density
1.274e-03,0.000e+00
3.821e-03,0.000e+00
6.368e-03,0.000e+00
8.915e-03,0.000e+00
1.146e-02,0.000e+00
1.401e-02,0.000e+00
1.656e-02,0.000e+00
1.910e-02,0.000e+00
2.165e-02,0.000e+00
2.420e-02,0.000e+00
2.674e-02,0.000e+00
2.929e-02,0.000e+00
3.184e-02,0.000e+00
3.439e-02,0.000e+00
3.693e-02,0.000e+00
3.948e-02,0.000e+00
4.203e-02,0.000e+00
4.457e-02,0.000e+00
4.712e-02,0.000e+00
4.967e-02,0.000e+00
5.221e-02,0.000e+00
5.476e-02,0.000e+00
5.731e-02,0.000e+00
5.986e-02,0.000e+00
6.240e-02,0.000e+00
6.495e-02,0.000e+00
6.750e-02,0.000e+00
7.004e-02,0.000e+00
7.259e-02,3.926e-03
7.514e-02,0.000e+00
7.769e-02,7.852e-03
8.023e-02,0.000e+00
8.278e-02,1.570e-02
8.533e-02,3.926e-03
8.787e-02,7.852e-03
9.042e-02,1.570e-02
9.297e-02,8.245e-02
9.551e-02,5.497e-02
9.806e-02,5.889e-02
1.006e-01,1.688e-01
1.032e-01,1.217e-01
1.057e-01,1.963e-01
1.082e-01,3.102e-01
1.108e-01,3.533e-01
1.133e-01,5.457e-01
1.159e-01,7.891e-01
1.184e-01,1.154e+00
1.210e-01,1.382e+00
1.235e-01,1.814e+00
1.261e-01,2.387e+00
1.286e-01,3.286e+00
1.312e-01,3.765e+00
1.337e-01,4.872e+00
1.363e-01,5.595e+00
1.388e-01,6.988e+00
1.414e-01,8.174e+00
1.439e-01,9.018e+00
1.465e-01,1.050e+01
1.490e-01,1.135e+01
1.515e-01,1.270e+01
1.541e-01,1.386e+01
1.566e-01,1.525e+01
1.592e-01,1.538e+01
1.617e-01,1.581e+01
1.643e-01,1.638e+01
1.668e-01,1.640e+01
1.694e-01,1.719e+01
1.719e-01,1.630e+01
1.745e-01,1.590e+01
1.770e-01,1.535e+01
1.796e-01,1.464e+01
1.821e-01,1.400e+01
1.847e-01,1.326e+01
1.872e-01,1.202e+01
1.898e-01,1.115e+01
1.923e-01,1.009e+01
1.948e-01,9.682e+00
1.974e-01,8.064e+00
1.999e-01,7.397e+00
2.025e-01,7.032e+00
2.050e-01,6.023e+00
2.076e-01,5.347e+00
2.101e-01,4.480e+00
2.127e-01,3.942e+00
2.152e-01,3.526e+00
2.178e-01,3.176e+00
2.203e-01,2.481e+00
2.229e-01,2.053e+00
2.254e-01,1.837e+00
2.280e-01,1.429e+00
2.305e-01,1.374e+00
2.331e-01,1.135e+00
2.356e-01,9.030e-01
2.381e-01,7.303e-01
2.407e-01,6.517e-01
2.432e-01,5.261e-01
2.458e-01,4.437e-01
2.483e-01,3.102e-01
2.509e-01,2.630e-01
2.534e-01,2.042e-01
2.560e-01,2.002e-01
2.585e-01,1.335e-01
2.611e-01,1.021e-01
2.636e-01,1.060e-01
2.662e-01,5.889e-02
2.687e-01,6.282e-02
2.713e-01,3.533e-02
2.738e-01,7.067e-02
2.764e-01,4.711e-02
2.789e-01,1.570e-02
2.814e-01,1.570e-02
2.840e-01,1.570e-02
2.865e-01,3.926e-03
2.891e-01,1.178e-02
2.916e-01,3.926e-03
2.942e-01,1.178e-02
2.967e-01,0.000e+00
2.993e-01,1.178e-02
3.018e-01,3.926e-03
3.044e-01,0.000e+00
3.069e-01,0.000e+00
3.095e-01,0.000e+00
3.120e-01,0.000e+00
3.146e-01,0.000e+00
3.171e-01,0.000e+00
3.197e-01,3.926e-03
3.222e-01,0.000e+00
3.247e-01,0.000e+00
3.273e-01,3.926e-03
3.298e-01,0.000e+00
3.324e-01,0.000e+00
3.349e-01,0.000e+00
3.375e-01,0.000e+00
3.400e-01,0.000e+00
3.426e-01,0.000e+00
3.451e-01,0.000e+00
3.477e-01,0.000e+00
3.502e-01,0.000e+00
3.528e-01,0.000e+00
3.553e-01,0.000e+00
3.579e-01,0.000e+00
3.604e-01,0.000e+00
3.630e-01,0.000e+00
3.655e-01,0.000e+00
3.680e-01,0.000e+00
3.706e-01,0.000e+00
3.731e-01,0.000e+00
3.757e-01,0.000e+00
3.782e-01,0.000e+00
3.808e-01,0.000e+00
3.833e-01,0.000e+00
3.859e-01,0.000e+00
3.884e-01,0.000e+00
3.910e-01,0.000e+00
3.935e-01,0.000e+00
3.961e-01,0.000e+00
3.986e-01,0.000e+00
4.012e-01,0.000e+00
4.037e-01,0.000e+00
4.063e-01,0.000e+00
4.088e-01,0.000e+00
4.113e-01,0.000e+00
4.139e-01,0.000e+00
4.164e-01,0.000e+00
4.190e-01,0.000e+00
4.215e-01,0.000e+00
4.241e-01,0.000e+00
4.266e-01,0.000e+00
4.292e-01,0.000e+00
4.317e-01,0.000e+00
4.343e-01,0.000e+00
4.368e-01,0.000e+00
4.394e-01,0.000e+00
4.419e-01,0.000e+00
4.445e-01,0.000e+00
4.470e-01,0.000e+00
4.496e-01,0.000e+00
4.521e-01,0.000e+00
4.546e-01,0.000e+00
4.572e-01,0.000e+00
4.597e-01,0.000e+00
4.623e-01,0.000e+00
4.648e-01,0.000e+00
4.674e-01,0.000e+00
4.699e-01,0.000e+00
4.725e-01,0.000e+00
4.750e-01,0.000e+00
4.776e-01,0.000e+00
4.801e-01,0.000e+00
4.827e-01,0.000e+00
4.852e-01,0.000e+00
4.878e-01,0.000e+00
4.903e-01,0.000e+00
4.929e-01,0.000e+00
4.954e-01,0.000e+00
4.979e-01,0.000e+00
5.005e-01,0.000e+00
5.030e-01,0.000e+00
5.056e-01,0.000e+00
5.081e-01,0.000e+00
