transmittance,probability_density
1.465e-03,0.000e+00
4.394e-03,0.000e+00
7.323e-03,0.000e+00
1.025e-02,0.000e+00
1.318e-02,0.000e+00
1.611e-02,0.000e+00
1.904e-02,0.000e+00
2.197e-02,0.000e+00
2.490e-02,0.000e+00
2.783e-02,0.000e+00
3.076e-02,0.000e+00
3.369e-02,0.000e+00
3.662e-02,0.000e+00
3.955e-02,0.000e+00
4.247e-02,0.000e+00
4.540e-02,0.000e+00
4.833e-02,0.000e+00
5.126e-02,0.000e+00
5.419e-02,0.000e+00
5.712e-02,0.000e+00
6.005e-02,0.000e+00
6.298e-02,0.000e+00
6.591e-02,0.000e+00
6.884e-02,0.000e+00
7.177e-02,0.000e+00
7.470e-02,0.000e+00
7.763e-02,0.000e+00
8.056e-02,0.000e+00
8.349e-02,0.000e+00
8.641e-02,0.000e+00
8.934e-02,0.000e+00
9.227e-02,3.414e-03
9.520e-02,0.000e+00
9.813e-02,3.414e-03
1.011e-01,6.828e-03
1.040e-01,1.024e-02
1.069e-01,3.414e-03
1.098e-01,3.414e-03
1.128e-01,1.707e-02
1.157e-01,4.097e-02
1.186e-01,6.486e-02
1.216e-01,4.438e-02
1.245e-01,8.534e-02
1.274e-01,1.366e-01
1.304e-01,1.058e-01
1.333e-01,2.253e-01
1.362e-01,2.663e-01
1.391e-01,3.584e-01
1.421e-01,5.052e-01
1.450e-01,7.203e-01
1.479e-01,9.627e-01
1.509e-01,1.249e+00
1.538e-01,1.471e+00
1.567e-01,1.990e+00
1.596e-01,2.666e+00
1.626e-01,3.096e+00
1.655e-01,3.881e+00
1.684e-01,4.479e+00
1.714e-01,5.578e+00
1.743e-01,6.476e+00
1.772e-01,7.288e+00
1.802e-01,8.285e+00
1.831e-01,9.029e+00
1.860e-01,9.893e+00
1.889e-01,1.092e+01
1.919e-01,1.209e+01
1.948e-01,1.259e+01
1.977e-01,1.317e+01
2.007e-01,1.326e+01
2.036e-01,1.340e+01
2.065e-01,1.392e+01
2.094e-01,1.411e+01
2.124e-01,1.362e+01
2.153e-01,1.312e+01
2.182e-01,1.287e+01
2.212e-01,1.220e+01
2.241e-01,1.174e+01
2.270e-01,1.113e+01
2.300e-01,1.002e+01
2.329e-01,9.661e+00
2.358e-01,8.586e+00
2.387e-01,8.214e+00
2.417e-01,7.118e+00
2.446e-01,6.302e+00
2.475e-01,6.056e+00
2.505e-01,5.425e+00
2.534e-01,4.745e+00
2.563e-01,3.967e+00
2.592e-01,3.619e+00
2.622e-01,3.069e+00
2.651e-01,2.868e+00
2.680e-01,2.349e+00
2.710e-01,1.925e+00
2.739e-01,1.676e+00
2.768e-01,1.369e+00
2.797e-01,1.287e+00
2.827e-01,1.103e+00
2.856e-01,8.569e-01
2.885e-01,7.374e-01
2.915e-01,5.974e-01
2.944e-01,5.326e-01
2.973e-01,4.233e-01
3.003e-01,3.516e-01
3.032e-01,2.731e-01
3.061e-01,2.356e-01
3.090e-01,1.570e-01
3.120e-01,1.570e-01
3.149e-01,1.058e-01
3.178e-01,8.876e-02
3.208e-01,8.534e-02
3.237e-01,5.462e-02
3.266e-01,5.121e-02
3.295e-01,3.755e-02
3.325e-01,5.462e-02
3.354e-01,4.097e-02
3.383e-01,1.366e-02
3.413e-01,1.707e-02
3.442e-01,1.024e-02
3.471e-01,3.414e-03
3.501e-01,1.024e-02
3.530e-01,3.414e-03
3.559e-01,1.024e-02
3.588e-01,0.000e+00
3.618e-01,1.024e-02
3.647e-01,3.414e-03
3.676e-01,0.000e+00
3.706e-01,0.000e+00
3.735e-01,0.000e+00
3.764e-01,0.000e+00
3.793e-01,0.000e+00
3.823e-01,0.000e+00
3.852e-01,3.414e-03
3.881e-01,0.000e+00
3.911e-01,0.000e+00
3.940e-01,3.414e-03
3.969e-01,0.000e+00
3.998e-01,0.000e+00
4.028e-01,0.000e+00
4.057e-01,0.000e+00
4.086e-01,0.000e+00
4.116e-01,0.000e+00
4.145e-01,0.000e+00
4.174e-01,0.000e+00
4.204e-01,0.000e+00
4.233e-01,0.000e+00
4.262e-01,0.000e+00
4.291e-01,0.000e+00
4.321e-01,0.000e+00
4.350e-01,0.000e+00
4.379e-01,0.000e+00
4.409e-01,0.000e+00
4.438e-01,0.000e+00
4.467e-01,0.000e+00
4.496e-01,0.000e+00
4.526e-01,0.000e+00
4.555e-01,0.000e+00
4.584e-01,0.000e+00
4.614e-01,0.000e+00
4.643e-01,0.000e+00
4.672e-01,0.000e+00
4.702e-01,0.000e+00
4.731e-01,0.000e+00
4.760e-01,0.000e+00
4.789e-01,0.000e+00
4.819e-01,0.000e+00
4.848e-01,0.000e+00
4.877e-01,0.000e+00
4.907e-01,0.000e+00
4.936e-01,0.000e+00
4.965e-01,0.000e+00
4.994e-01,0.000e+00
5.024e-01,0.000e+00
5.053e-01,0.000e+00
5.082e-01,0.000e+00
5.112e-01,0.000e+00
5.141e-01,0.000e+00
5.170e-01,0.000e+00
5.200e-01,0.000e+00
5.229e-01,0.000e+00
5.258e-01,0.000e+00
5.287e-01,0.000e+00
5.317e-01,0.000e+00
5.346e-01,0.000e+00
5.375e-01,0.000e+00
5.405e-01,0.000e+00
5.434e-01,0.000e+00
5.463e-01,0.000e+00
5.492e-01,0.000e+00
5.522e-01,0.000e+00
5.551e-01,0.000e+00
5.580e-01,0.000e+00
5.610e-01,0.000e+00
5.639e-01,0.000e+00
5.668e-01,0.000e+00
5.697e-01,0.000e+00
5.727e-01,0.000e+00
5.756e-01,0.000e+00
5.785e-01,0.000e+00
5.815e-01,0.000e+00
5.844e-01,0.000e+00
