transmittance,probability_density
1.045e-01,0.000e+00
1.083e-01,0.000e+00
1.122e-01,0.000e+00
1.160e-01,0.000e+00
1.199e-01,0.000e+00
1.238e-01,0.000e+00
1.276e-01,0.000e+00
1.315e-01,0.000e+00
1.353e-01,0.000e+00
1.392e-01,0.000e+00
1.430e-01,0.000e+00
1.469e-01,0.000e+00
1.508e-01,0.000e+00
1.546e-01,0.000e+00
1.585e-01,0.000e+00
1.623e-01,0.000e+00
1.662e-01,0.000e+00
1.701e-01,0.000e+00
1.739e-01,0.000e+00
1.778e-01,0.000e+00
1.816e-01,0.000e+00
1.855e-01,0.000e+00
1.893e-01,0.000e+00
1.932e-01,0.000e+00
1.971e-01,0.000e+00
2.009e-01,0.000e+00
2.048e-01,0.000e+00
2.086e-01,0.000e+00
2.125e-01,0.000e+00
2.163e-01,2.592e-03
2.202e-01,0.000e+00
2.241e-01,0.000e+00
2.279e-01,0.000e+00
2.318e-01,5.185e-03
2.356e-01,5.185e-03
2.395e-01,5.185e-03
2.433e-01,2.592e-03
2.472e-01,0.000e+00
2.511e-01,5.185e-03
2.549e-01,7.777e-03
2.588e-01,2.074e-02
2.626e-01,2.852e-02
2.665e-01,2.333e-02
2.703e-01,2.592e-02
2.742e-01,3.629e-02
2.781e-01,6.222e-02
2.819e-01,8.555e-02
2.858e-01,6.481e-02
2.896e-01,9.073e-02
2.935e-01,9.592e-02
2.974e-01,1.400e-01
3.012e-01,1.633e-01
3.051e-01,2.281e-01
3.089e-01,3.059e-01
3.128e-01,4.018e-01
3.166e-01,4.537e-01
3.205e-01,5.029e-01
3.244e-01,6.559e-01
3.282e-01,7.907e-01
3.321e-01,8.814e-01
3.359e-01,1.104e+00
3.398e-01,1.377e+00
3.436e-01,1.644e+00
3.475e-01,1.802e+00
3.514e-01,2.157e+00
3.552e-01,2.323e+00
3.591e-01,2.678e+00
3.629e-01,3.173e+00
3.668e-01,3.458e+00
3.706e-01,3.940e+00
3.745e-01,4.181e+00
3.784e-01,4.739e+00
3.822e-01,4.959e+00
3.861e-01,5.356e+00
3.899e-01,5.700e+00
3.938e-01,6.255e+00
3.976e-01,6.590e+00
4.015e-01,7.248e+00
4.054e-01,7.131e+00
4.092e-01,7.528e+00
4.131e-01,7.437e+00
4.169e-01,7.951e+00
4.208e-01,7.782e+00
4.247e-01,8.000e+00
4.285e-01,8.466e+00
4.324e-01,7.956e+00
4.362e-01,7.958e+00
4.401e-01,7.634e+00
4.439e-01,7.536e+00
4.478e-01,7.497e+00
4.517e-01,7.124e+00
4.555e-01,6.818e+00
4.594e-01,6.867e+00
4.632e-01,6.037e+00
4.671e-01,6.014e+00
4.709e-01,5.408e+00
4.748e-01,5.213e+00
4.787e-01,5.052e+00
4.825e-01,4.586e+00
4.864e-01,3.938e+00
4.902e-01,3.873e+00
4.941e-01,3.738e+00
4.979e-01,3.305e+00
5.018e-01,2.867e+00
5.057e-01,2.673e+00
5.095e-01,2.312e+00
5.134e-01,2.066e+00
5.172e-01,1.965e+00
5.211e-01,1.841e+00
5.249e-01,1.498e+00
5.288e-01,1.262e+00
5.327e-01,1.169e+00
5.365e-01,9.695e-01
5.404e-01,8.658e-01
5.442e-01,8.114e-01
5.481e-01,6.766e-01
5.520e-01,5.599e-01
5.558e-01,5.236e-01
5.597e-01,4.225e-01
5.635e-01,3.629e-01
5.674e-01,3.059e-01
5.712e-01,2.592e-01
5.751e-01,2.126e-01
5.790e-01,1.607e-01
5.828e-01,1.607e-01
5.867e-01,1.089e-01
5.905e-01,1.063e-01
5.944e-01,7.777e-02
5.982e-01,5.962e-02
6.021e-01,5.703e-02
6.060e-01,3.888e-02
6.098e-01,4.148e-02
6.137e-01,2.333e-02
6.175e-01,4.666e-02
6.214e-01,3.370e-02
6.252e-01,7.777e-03
6.291e-01,1.037e-02
6.330e-01,1.296e-02
6.368e-01,2.592e-03
6.407e-01,2.592e-03
6.445e-01,7.777e-03
6.484e-01,5.185e-03
6.522e-01,5.185e-03
6.561e-01,5.185e-03
6.600e-01,2.592e-03
6.638e-01,0.000e+00
6.677e-01,0.000e+00
6.715e-01,0.000e+00
6.754e-01,0.000e+00
6.793e-01,0.000e+00
6.831e-01,0.000e+00
6.870e-01,2.592e-03
6.908e-01,0.000e+00
6.947e-01,0.000e+00
6.985e-01,2.592e-03
7.024e-01,0.000e+00
7.063e-01,0.000e+00
7.101e-01,0.000e+00
7.140e-01,0.000e+00
7.178e-01,0.000e+00
7.217e-01,0.000e+00
7.255e-01,0.000e+00
7.294e-01,0.000e+00
7.333e-01,0.000e+00
7.371e-01,0.000e+00
7.410e-01,0.000e+00
7.448e-01,0.000e+00
7.487e-01,0.000e+00
7.525e-01,0.000e+00
7.564e-01,0.000e+00
7.603e-01,0.000e+00
7.641e-01,0.000e+00
7.680e-01,0.000e+00
7.718e-01,0.000e+00
7.757e-01,0.000e+00
7.795e-01,0.000e+00
7.834e-01,0.000e+00
7.873e-01,0.000e+00
7.911e-01,0.000e+00
7.950e-01,0.000e+00
7.988e-01,0.000e+00
8.027e-01,0.000e+00
8.066e-01,0.000e+00
8.104e-01,0.000e+00
8.143e-01,0.000e+00
8.181e-01,0.000e+00
8.220e-01,0.000e+00
8.258e-01,0.000e+00
8.297e-01,0.000e+00
8.336e-01,0.000e+00
8.374e-01,0.000e+00
8.413e-01,0.000e+00
8.451e-01,0.000e+00
8.490e-01,0.000e+00
8.528e-01,0.000e+00
8.567e-01,0.000e+00
8.606e-01,0.000e+00
8.644e-01,0.000e+00
8.683e-01,0.000e+00
8.721e-01,0.000e+00
