transmittance,probability_density
1.651e-03,0.000e+00
4.954e-03,0.000e+00
8.257e-03,0.000e+00
1.156e-02,0.000e+00
1.486e-02,0.000e+00
1.817e-02,0.000e+00
2.147e-02,0.000e+00
2.477e-02,0.000e+00
2.807e-02,0.000e+00
3.138e-02,0.000e+00
3.468e-02,0.000e+00
3.798e-02,0.000e+00
4.128e-02,0.000e+00
4.459e-02,0.000e+00
4.789e-02,0.000e+00
5.119e-02,0.000e+00
5.450e-02,0.000e+00
5.780e-02,0.000e+00
6.110e-02,0.000e+00
6.440e-02,0.000e+00
6.771e-02,0.000e+00
7.101e-02,0.000e+00
7.431e-02,0.000e+00
7.761e-02,0.000e+00
8.092e-02,0.000e+00
8.422e-02,0.000e+00
8.752e-02,0.000e+00
9.083e-02,0.000e+00
9.413e-02,0.000e+00
9.743e-02,0.000e+00
1.007e-01,0.000e+00
1.040e-01,0.000e+00
1.073e-01,0.000e+00
1.106e-01,0.000e+00
1.139e-01,3.028e-03
1.172e-01,0.000e+00
1.206e-01,0.000e+00
1.239e-01,6.056e-03
1.272e-01,1.211e-02
1.305e-01,0.000e+00
1.338e-01,3.028e-03
1.371e-01,6.056e-03
1.404e-01,1.817e-02
1.437e-01,5.147e-02
1.470e-01,3.936e-02
1.503e-01,3.633e-02
1.536e-01,8.781e-02
1.569e-01,1.120e-01
1.602e-01,1.029e-01
1.635e-01,1.756e-01
1.668e-01,2.059e-01
1.701e-01,2.907e-01
1.734e-01,4.148e-01
1.767e-01,5.541e-01
1.800e-01,7.630e-01
1.833e-01,8.871e-01
1.866e-01,1.226e+00
1.899e-01,1.475e+00
1.932e-01,1.923e+00
1.965e-01,2.477e+00
1.998e-01,2.837e+00
2.031e-01,3.539e+00
2.064e-01,4.018e+00
2.097e-01,4.841e+00
2.130e-01,5.677e+00
2.163e-01,6.183e+00
2.196e-01,7.179e+00
2.229e-01,7.697e+00
2.262e-01,8.345e+00
2.295e-01,9.259e+00
2.328e-01,1.011e+01
2.361e-01,1.079e+01
2.394e-01,1.102e+01
2.428e-01,1.107e+01
2.461e-01,1.164e+01
2.494e-01,1.155e+01
2.527e-01,1.218e+01
2.560e-01,1.146e+01
2.593e-01,1.156e+01
2.626e-01,1.107e+01
2.659e-01,1.073e+01
2.692e-01,1.012e+01
2.725e-01,9.874e+00
2.758e-01,9.168e+00
2.791e-01,8.587e+00
2.824e-01,7.797e+00
2.857e-01,7.215e+00
2.890e-01,6.952e+00
2.923e-01,5.950e+00
2.956e-01,5.317e+00
2.989e-01,5.156e+00
3.022e-01,4.542e+00
3.055e-01,4.015e+00
3.088e-01,3.364e+00
3.121e-01,3.094e+00
3.154e-01,2.625e+00
3.187e-01,2.489e+00
3.220e-01,2.050e+00
3.253e-01,1.650e+00
3.286e-01,1.444e+00
3.319e-01,1.217e+00
3.352e-01,1.117e+00
3.385e-01,9.598e-01
3.418e-01,7.872e-01
3.451e-01,6.691e-01
3.484e-01,5.117e-01
3.517e-01,4.754e-01
3.550e-01,3.966e-01
3.583e-01,3.119e-01
3.617e-01,2.483e-01
3.650e-01,1.998e-01
3.683e-01,1.514e-01
3.716e-01,1.514e-01
3.749e-01,9.386e-02
3.782e-01,8.781e-02
3.815e-01,7.569e-02
3.848e-01,4.844e-02
3.881e-01,5.147e-02
3.914e-01,2.119e-02
3.947e-01,5.753e-02
3.980e-01,3.936e-02
4.013e-01,1.514e-02
4.046e-01,1.211e-02
4.079e-01,1.211e-02
4.112e-01,3.028e-03
4.145e-01,6.056e-03
4.178e-01,6.056e-03
4.211e-01,6.056e-03
4.244e-01,3.028e-03
4.277e-01,9.083e-03
4.310e-01,3.028e-03
4.343e-01,0.000e+00
4.376e-01,0.000e+00
4.409e-01,0.000e+00
4.442e-01,0.000e+00
4.475e-01,0.000e+00
4.508e-01,0.000e+00
4.541e-01,3.028e-03
4.574e-01,0.000e+00
4.607e-01,0.000e+00
4.640e-01,3.028e-03
4.673e-01,0.000e+00
4.706e-01,0.000e+00
4.739e-01,0.000e+00
4.772e-01,0.000e+00
4.806e-01,0.000e+00
4.839e-01,0.000e+00
4.872e-01,0.000e+00
4.905e-01,0.000e+00
4.938e-01,0.000e+00
4.971e-01,0.000e+00
5.004e-01,0.000e+00
5.037e-01,0.000e+00
5.070e-01,0.000e+00
5.103e-01,0.000e+00
5.136e-01,0.000e+00
5.169e-01,0.000e+00
5.202e-01,0.000e+00
5.235e-01,0.000e+00
5.268e-01,0.000e+00
5.301e-01,0.000e+00
5.334e-01,0.000e+00
5.367e-01,0.000e+00
5.400e-01,0.000e+00
5.433e-01,0.000e+00
5.466e-01,0.000e+00
5.499e-01,0.000e+00
5.532e-01,0.000e+00
5.565e-01,0.000e+00
5.598e-01,0.000e+00
5.631e-01,0.000e+00
5.664e-01,0.000e+00
5.697e-01,0.000e+00
5.730e-01,0.000e+00
5.763e-01,0.000e+00
5.796e-01,0.000e+00
5.829e-01,0.000e+00
5.862e-01,0.000e+00
5.895e-01,0.000e+00
5.928e-01,0.000e+00
5.961e-01,0.000e+00
5.994e-01,0.000e+00
6.028e-01,0.000e+00
6.061e-01,0.000e+00
6.094e-01,0.000e+00
6.127e-01,0.000e+00
6.160e-01,0.000e+00
6.193e-01,0.000e+00
6.226e-01,0.000e+00
6.259e-01,0.000e+00
6.292e-01,0.000e+00
6.325e-01,0.000e+00
6.358e-01,0.000e+00
6.391e-01,0.000e+00
6.424e-01,0.000e+00
6.457e-01,0.000e+00
6.490e-01,0.000e+00
6.523e-01,0.000e+00
6.556e-01,0.000e+00
6.589e-01,0.000e+00
