transmittance,probability_density
1.782e-01,0.000e+00
1.824e-01,0.000e+00
1.865e-01,0.000e+00
1.906e-01,0.000e+00
1.947e-01,0.000e+00
1.988e-01,0.000e+00
2.030e-01,0.000e+00
2.071e-01,0.000e+00
2.112e-01,0.000e+00
2.153e-01,0.000e+00
2.194e-01,0.000e+00
2.236e-01,0.000e+00
2.277e-01,0.000e+00
2.318e-01,0.000e+00
2.359e-01,0.000e+00
2.400e-01,0.000e+00
2.441e-01,0.000e+00
2.483e-01,0.000e+00
2.524e-01,0.000e+00
2.565e-01,0.000e+00
2.606e-01,0.000e+00
2.647e-01,0.000e+00
2.689e-01,0.000e+00
2.730e-01,0.000e+00
2.771e-01,0.000e+00
2.812e-01,0.000e+00
2.853e-01,0.000e+00
2.895e-01,0.000e+00
2.936e-01,0.000e+00
2.977e-01,0.000e+00
3.018e-01,0.000e+00
3.059e-01,0.000e+00
3.101e-01,2.428e-03
3.142e-01,0.000e+00
3.183e-01,0.000e+00
3.224e-01,0.000e+00
3.265e-01,0.000e+00
3.306e-01,0.000e+00
3.348e-01,7.283e-03
3.389e-01,2.428e-03
3.430e-01,2.428e-03
3.471e-01,2.428e-03
3.512e-01,2.428e-03
3.554e-01,7.283e-03
3.595e-01,9.711e-03
3.636e-01,1.214e-02
3.677e-01,9.711e-03
3.718e-01,2.428e-02
3.760e-01,2.428e-02
3.801e-01,1.942e-02
3.842e-01,2.670e-02
3.883e-01,5.098e-02
3.924e-01,7.526e-02
3.966e-01,3.884e-02
4.007e-01,8.497e-02
4.048e-01,7.283e-02
4.089e-01,1.141e-01
4.130e-01,1.214e-01
4.171e-01,1.529e-01
4.213e-01,1.724e-01
4.254e-01,2.452e-01
4.295e-01,3.569e-01
4.336e-01,3.593e-01
4.377e-01,4.079e-01
4.419e-01,4.564e-01
4.460e-01,6.166e-01
4.501e-01,7.113e-01
4.542e-01,7.939e-01
4.583e-01,8.813e-01
4.625e-01,1.168e+00
4.666e-01,1.347e+00
4.707e-01,1.466e+00
4.748e-01,1.699e+00
4.789e-01,1.976e+00
4.831e-01,2.100e+00
4.872e-01,2.428e+00
4.913e-01,2.717e+00
4.954e-01,3.049e+00
4.995e-01,3.396e+00
5.036e-01,3.540e+00
5.078e-01,3.979e+00
5.119e-01,4.190e+00
5.160e-01,4.644e+00
5.201e-01,4.661e+00
5.242e-01,5.169e+00
5.284e-01,5.715e+00
5.325e-01,5.902e+00
5.366e-01,6.162e+00
5.407e-01,6.368e+00
5.448e-01,6.565e+00
5.490e-01,6.582e+00
5.531e-01,7.062e+00
5.572e-01,6.807e+00
5.613e-01,7.089e+00
5.654e-01,7.480e+00
5.696e-01,7.179e+00
5.737e-01,7.006e+00
5.778e-01,7.031e+00
5.819e-01,6.773e+00
5.860e-01,6.793e+00
5.902e-01,6.441e+00
5.943e-01,6.290e+00
5.984e-01,6.162e+00
6.025e-01,5.863e+00
6.066e-01,5.593e+00
6.107e-01,5.309e+00
6.149e-01,4.758e+00
6.190e-01,4.715e+00
6.231e-01,4.494e+00
6.272e-01,3.986e+00
6.313e-01,3.746e+00
6.355e-01,3.452e+00
6.396e-01,3.438e+00
6.437e-01,2.887e+00
6.478e-01,2.641e+00
6.519e-01,2.343e+00
6.561e-01,2.095e+00
6.602e-01,1.971e+00
6.643e-01,1.767e+00
6.684e-01,1.636e+00
6.725e-01,1.311e+00
6.767e-01,1.143e+00
6.808e-01,1.034e+00
6.849e-01,8.473e-01
6.890e-01,7.939e-01
6.931e-01,6.846e-01
6.972e-01,5.851e-01
7.014e-01,5.122e-01
7.055e-01,4.127e-01
7.096e-01,3.666e-01
7.137e-01,3.132e-01
7.178e-01,2.428e-01
7.220e-01,1.894e-01
7.261e-01,1.675e-01
7.302e-01,1.238e-01
7.343e-01,1.165e-01
7.384e-01,7.769e-02
7.426e-01,6.312e-02
7.467e-01,6.069e-02
7.508e-01,3.642e-02
7.549e-01,4.127e-02
7.590e-01,4.127e-02
7.632e-01,4.127e-02
7.673e-01,1.699e-02
7.714e-01,7.283e-03
7.755e-01,1.214e-02
7.796e-01,4.855e-03
7.837e-01,4.855e-03
7.879e-01,7.283e-03
7.920e-01,4.855e-03
7.961e-01,4.855e-03
8.002e-01,2.428e-03
8.043e-01,0.000e+00
8.085e-01,0.000e+00
8.126e-01,0.000e+00
8.167e-01,0.000e+00
8.208e-01,2.428e-03
8.249e-01,0.000e+00
8.291e-01,0.000e+00
8.332e-01,2.428e-03
8.373e-01,0.000e+00
8.414e-01,0.000e+00
8.455e-01,0.000e+00
8.497e-01,0.000e+00
8.538e-01,0.000e+00
8.579e-01,0.000e+00
8.620e-01,0.000e+00
8.661e-01,0.000e+00
8.702e-01,0.000e+00
8.744e-01,0.000e+00
8.785e-01,0.000e+00
8.826e-01,0.000e+00
8.867e-01,0.000e+00
8.908e-01,0.000e+00
8.950e-01,0.000e+00
8.991e-01,0.000e+00
9.032e-01,0.000e+00
9.073e-01,0.000e+00
9.114e-01,0.000e+00
9.156e-01,0.000e+00
9.197e-01,0.000e+00
9.238e-01,0.000e+00
9.279e-01,0.000e+00
9.320e-01,0.000e+00
9.362e-01,0.000e+00
9.403e-01,0.000e+00
9.444e-01,0.000e+00
9.485e-01,0.000e+00
9.526e-01,0.000e+00
9.567e-01,0.000e+00
9.609e-01,0.000e+00
9.650e-01,0.000e+00
9.691e-01,0.000e+00
9.732e-01,0.000e+00
9.773e-01,0.000e+00
9.815e-01,0.000e+00
9.856e-01,0.000e+00
9.897e-01,0.000e+00
9.938e-01,0.000e+00
9.979e-01,0.000e+00
