transmittance,probability_density
2.456e-01,0.000e+00
2.494e-01,0.000e+00
2.532e-01,0.000e+00
2.570e-01,0.000e+00
2.607e-01,0.000e+00
2.645e-01,0.000e+00
2.683e-01,0.000e+00
2.721e-01,0.000e+00
2.759e-01,0.000e+00
2.797e-01,0.000e+00
2.834e-01,0.000e+00
2.872e-01,0.000e+00
2.910e-01,0.000e+00
2.948e-01,0.000e+00
2.986e-01,0.000e+00
3.023e-01,0.000e+00
3.061e-01,0.000e+00
3.099e-01,0.000e+00
3.137e-01,0.000e+00
3.175e-01,0.000e+00
3.212e-01,0.000e+00
3.250e-01,0.000e+00
3.288e-01,0.000e+00
3.326e-01,0.000e+00
3.364e-01,0.000e+00
3.402e-01,0.000e+00
3.439e-01,0.000e+00
3.477e-01,0.000e+00
3.515e-01,0.000e+00
3.553e-01,0.000e+00
3.591e-01,0.000e+00
3.628e-01,0.000e+00
3.666e-01,0.000e+00
3.704e-01,0.000e+00
3.742e-01,0.000e+00
3.780e-01,2.645e-03
3.817e-01,0.000e+00
3.855e-01,0.000e+00
3.893e-01,0.000e+00
3.931e-01,0.000e+00
3.969e-01,0.000e+00
4.007e-01,7.934e-03
4.044e-01,0.000e+00
4.082e-01,0.000e+00
4.120e-01,5.289e-03
4.158e-01,0.000e+00
4.196e-01,5.289e-03
4.233e-01,1.058e-02
4.271e-01,5.289e-03
4.309e-01,1.322e-02
4.347e-01,1.058e-02
4.385e-01,2.645e-03
4.422e-01,2.116e-02
4.460e-01,2.380e-02
4.498e-01,2.645e-02
4.536e-01,1.851e-02
4.574e-01,3.967e-02
4.612e-01,5.289e-02
4.649e-01,5.818e-02
4.687e-01,6.347e-02
4.725e-01,5.025e-02
4.763e-01,7.405e-02
4.801e-01,9.785e-02
4.838e-01,1.111e-01
4.876e-01,1.375e-01
4.914e-01,1.693e-01
4.952e-01,1.560e-01
4.990e-01,2.301e-01
5.028e-01,3.015e-01
5.065e-01,3.676e-01
5.103e-01,3.835e-01
5.141e-01,3.464e-01
5.179e-01,4.998e-01
5.217e-01,5.739e-01
5.254e-01,7.087e-01
5.292e-01,7.484e-01
5.330e-01,8.225e-01
5.368e-01,1.042e+00
5.406e-01,1.193e+00
5.443e-01,1.261e+00
5.481e-01,1.518e+00
5.519e-01,1.703e+00
5.557e-01,1.790e+00
5.595e-01,2.015e+00
5.633e-01,2.251e+00
5.670e-01,2.467e+00
5.708e-01,2.740e+00
5.746e-01,3.208e+00
5.784e-01,3.213e+00
5.822e-01,3.404e+00
5.859e-01,3.866e+00
5.897e-01,4.057e+00
5.935e-01,4.514e+00
5.973e-01,4.408e+00
6.011e-01,4.855e+00
6.048e-01,5.215e+00
6.086e-01,5.490e+00
6.124e-01,6.003e+00
6.162e-01,5.929e+00
6.200e-01,6.244e+00
6.238e-01,6.371e+00
6.275e-01,6.529e+00
6.313e-01,6.831e+00
6.351e-01,6.683e+00
6.389e-01,6.931e+00
6.427e-01,7.191e+00
6.464e-01,7.191e+00
6.502e-01,7.209e+00
6.540e-01,6.931e+00
6.578e-01,6.931e+00
6.616e-01,6.796e+00
6.653e-01,6.728e+00
6.691e-01,6.331e+00
6.729e-01,6.601e+00
6.767e-01,6.149e+00
6.805e-01,6.157e+00
6.843e-01,5.543e+00
6.880e-01,5.591e+00
6.918e-01,5.183e+00
6.956e-01,4.903e+00
6.994e-01,4.710e+00
7.032e-01,4.522e+00
7.069e-01,4.041e+00
7.107e-01,3.821e+00
7.145e-01,3.544e+00
7.183e-01,3.549e+00
7.221e-01,2.972e+00
7.259e-01,2.795e+00
7.296e-01,2.486e+00
7.334e-01,2.253e+00
7.372e-01,2.034e+00
7.410e-01,1.960e+00
7.448e-01,1.780e+00
7.485e-01,1.460e+00
7.523e-01,1.293e+00
7.561e-01,1.142e+00
7.599e-01,9.864e-01
7.637e-01,9.071e-01
7.674e-01,7.643e-01
7.712e-01,7.140e-01
7.750e-01,5.580e-01
7.788e-01,4.998e-01
7.826e-01,4.522e-01
7.864e-01,3.438e-01
7.901e-01,2.909e-01
7.939e-01,2.327e-01
7.977e-01,2.142e-01
8.015e-01,1.719e-01
8.053e-01,1.190e-01
8.090e-01,1.005e-01
8.128e-01,8.198e-02
8.166e-01,6.611e-02
8.204e-01,5.554e-02
8.242e-01,4.231e-02
8.279e-01,4.760e-02
8.317e-01,4.760e-02
8.355e-01,2.645e-02
8.393e-01,5.289e-03
8.431e-01,1.587e-02
8.469e-01,5.289e-03
8.506e-01,2.645e-03
8.544e-01,1.058e-02
8.582e-01,7.934e-03
8.620e-01,2.645e-03
8.658e-01,2.645e-03
8.695e-01,0.000e+00
8.733e-01,0.000e+00
8.771e-01,0.000e+00
8.809e-01,0.000e+00
8.847e-01,2.645e-03
8.884e-01,0.000e+00
8.922e-01,2.645e-03
8.960e-01,0.000e+00
8.998e-01,0.000e+00
9.036e-01,0.000e+00
9.074e-01,0.000e+00
9.111e-01,0.000e+00
9.149e-01,0.000e+00
9.187e-01,0.000e+00
9.225e-01,0.000e+00
9.263e-01,0.000e+00
9.300e-01,0.000e+00
9.338e-01,0.000e+00
9.376e-01,0.000e+00
9.414e-01,0.000e+00
9.452e-01,0.000e+00
9.490e-01,0.000e+00
9.527e-01,0.000e+00
9.565e-01,0.000e+00
9.603e-01,0.000e+00
9.641e-01,0.000e+00
9.679e-01,0.000e+00
9.716e-01,0.000e+00
9.754e-01,0.000e+00
9.792e-01,0.000e+00
9.830e-01,0.000e+00
9.868e-01,0.000e+00
9.905e-01,0.000e+00
9.943e-01,0.000e+00
9.981e-01,0.000e+00
