transmittance,probability_density
1.282e-01,0.000e+00
1.316e-01,0.000e+00
1.351e-01,0.000e+00
1.386e-01,0.000e+00
1.420e-01,0.000e+00
1.455e-01,0.000e+00
1.490e-01,0.000e+00
1.524e-01,0.000e+00
1.559e-01,0.000e+00
1.594e-01,0.000e+00
1.628e-01,0.000e+00
1.663e-01,0.000e+00
1.697e-01,0.000e+00
1.732e-01,0.000e+00
1.767e-01,0.000e+00
1.801e-01,0.000e+00
1.836e-01,0.000e+00
1.871e-01,0.000e+00
1.905e-01,2.888e-03
1.940e-01,0.000e+00
1.974e-01,0.000e+00
2.009e-01,0.000e+00
2.044e-01,0.000e+00
2.078e-01,2.888e-03
2.113e-01,1.155e-02
2.148e-01,0.000e+00
2.182e-01,5.775e-03
2.217e-01,2.888e-03
2.252e-01,5.775e-03
2.286e-01,8.663e-03
2.321e-01,8.663e-03
2.355e-01,8.663e-03
2.390e-01,1.733e-02
2.425e-01,1.444e-02
2.459e-01,4.331e-02
2.494e-01,3.754e-02
2.529e-01,5.775e-02
2.563e-01,6.930e-02
2.598e-01,8.374e-02
2.632e-01,1.068e-01
2.667e-01,1.184e-01
2.702e-01,1.790e-01
2.736e-01,2.223e-01
2.771e-01,3.148e-01
2.806e-01,3.725e-01
2.840e-01,4.880e-01
2.875e-01,5.515e-01
2.909e-01,6.988e-01
2.944e-01,8.288e-01
2.979e-01,1.164e+00
3.013e-01,1.193e+00
3.048e-01,1.447e+00
3.083e-01,1.585e+00
3.117e-01,1.992e+00
3.152e-01,2.342e+00
3.187e-01,2.605e+00
3.221e-01,2.749e+00
3.256e-01,3.254e+00
3.290e-01,3.719e+00
3.325e-01,4.066e+00
3.360e-01,4.496e+00
3.394e-01,4.880e+00
3.429e-01,5.351e+00
3.464e-01,5.645e+00
3.498e-01,6.128e+00
3.533e-01,6.696e+00
3.567e-01,6.910e+00
3.602e-01,7.413e+00
3.637e-01,7.655e+00
3.671e-01,7.973e+00
3.706e-01,8.002e+00
3.741e-01,8.152e+00
3.775e-01,8.683e+00
3.810e-01,8.972e+00
3.845e-01,8.585e+00
3.879e-01,8.579e+00
3.914e-01,8.438e+00
3.948e-01,8.822e+00
3.983e-01,8.377e+00
4.018e-01,7.903e+00
4.052e-01,7.921e+00
4.087e-01,7.407e+00
4.122e-01,7.265e+00
4.156e-01,6.826e+00
4.191e-01,6.760e+00
4.225e-01,6.385e+00
4.260e-01,6.133e+00
4.295e-01,5.616e+00
4.329e-01,5.333e+00
4.364e-01,5.048e+00
4.399e-01,4.718e+00
4.433e-01,4.329e+00
4.468e-01,3.855e+00
4.502e-01,3.722e+00
4.537e-01,3.165e+00
4.572e-01,3.012e+00
4.606e-01,2.775e+00
4.641e-01,2.556e+00
4.676e-01,2.108e+00
4.710e-01,1.972e+00
4.745e-01,1.822e+00
4.780e-01,1.585e+00
4.814e-01,1.409e+00
4.849e-01,1.291e+00
4.883e-01,1.034e+00
4.918e-01,9.934e-01
4.953e-01,8.403e-01
4.987e-01,7.566e-01
5.022e-01,5.689e-01
5.057e-01,4.880e-01
5.091e-01,4.909e-01
5.126e-01,3.407e-01
5.160e-01,3.436e-01
5.195e-01,2.859e-01
5.230e-01,2.945e-01
5.264e-01,1.906e-01
5.299e-01,1.617e-01
5.334e-01,1.733e-01
5.368e-01,1.357e-01
5.403e-01,8.952e-02
5.437e-01,8.952e-02
5.472e-01,7.219e-02
5.507e-01,5.487e-02
5.541e-01,4.909e-02
5.576e-01,4.909e-02
5.611e-01,4.620e-02
5.645e-01,3.754e-02
5.680e-01,2.599e-02
5.715e-01,1.733e-02
5.749e-01,1.444e-02
5.784e-01,1.733e-02
5.818e-01,1.444e-02
5.853e-01,8.663e-03
5.888e-01,0.000e+00
5.922e-01,5.775e-03
5.957e-01,5.775e-03
5.992e-01,0.000e+00
6.026e-01,8.663e-03
6.061e-01,2.888e-03
6.095e-01,0.000e+00
6.130e-01,0.000e+00
6.165e-01,2.888e-03
6.199e-01,0.000e+00
6.234e-01,0.000e+00
6.269e-01,0.000e+00
6.303e-01,2.888e-03
6.338e-01,0.000e+00
6.373e-01,0.000e+00
6.407e-01,0.000e+00
6.442e-01,0.000e+00
6.476e-01,0.000e+00
6.511e-01,0.000e+00
6.546e-01,0.000e+00
6.580e-01,0.000e+00
6.615e-01,0.000e+00
6.650e-01,0.000e+00
6.684e-01,0.000e+00
6.719e-01,0.000e+00
6.753e-01,0.000e+00
6.788e-01,0.000e+00
6.823e-01,0.000e+00
6.857e-01,0.000e+00
6.892e-01,0.000e+00
6.927e-01,0.000e+00
6.961e-01,0.000e+00
6.996e-01,0.000e+00
7.030e-01,0.000e+00
7.065e-01,0.000e+00
7.100e-01,0.000e+00
7.134e-01,0.000e+00
7.169e-01,0.000e+00
7.204e-01,0.000e+00
7.238e-01,0.000e+00
7.273e-01,0.000e+00
7.308e-01,0.000e+00
7.342e-01,0.000e+00
7.377e-01,0.000e+00
7.411e-01,0.000e+00
7.446e-01,0.000e+00
7.481e-01,0.000e+00
7.515e-01,0.000e+00
7.550e-01,0.000e+00
7.585e-01,0.000e+00
7.619e-01,0.000e+00
7.654e-01,0.000e+00
7.688e-01,0.000e+00
7.723e-01,0.000e+00
7.758e-01,0.000e+00
7.792e-01,0.000e+00
7.827e-01,0.000e+00
7.862e-01,0.000e+00
7.896e-01,0.000e+00
7.931e-01,0.000e+00
7.966e-01,0.000e+00
8.000e-01,0.000e+00
8.035e-01,0.000e+00
8.069e-01,0.000e+00
8.104e-01,0.000e+00
8.139e-01,0.000e+00
8.173e-01,0.000e+00
