transmittance,probability_density
1.253e-01,0.000e+00
1.297e-01,0.000e+00
1.341e-01,0.000e+00
1.384e-01,0.000e+00
1.428e-01,0.000e+00
1.472e-01,0.000e+00
1.516e-01,0.000e+00
1.560e-01,0.000e+00
1.604e-01,0.000e+00
1.647e-01,0.000e+00
1.691e-01,0.000e+00
1.735e-01,0.000e+00
1.779e-01,0.000e+00
1.823e-01,0.000e+00
1.867e-01,0.000e+00
1.911e-01,0.000e+00
1.954e-01,0.000e+00
1.998e-01,0.000e+00
2.042e-01,0.000e+00
2.086e-01,0.000e+00
2.130e-01,0.000e+00
2.174e-01,0.000e+00
2.217e-01,0.000e+00
2.261e-01,0.000e+00
2.305e-01,0.000e+00
2.349e-01,0.000e+00
2.393e-01,0.000e+00
2.437e-01,0.000e+00
2.481e-01,2.281e-03
2.524e-01,0.000e+00
2.568e-01,0.000e+00
2.612e-01,0.000e+00
2.656e-01,2.281e-03
2.700e-01,6.842e-03
2.744e-01,2.281e-03
2.787e-01,4.561e-03
2.831e-01,0.000e+00
2.875e-01,9.123e-03
2.919e-01,9.123e-03
2.963e-01,1.597e-02
3.007e-01,2.965e-02
3.050e-01,2.281e-02
3.094e-01,1.825e-02
3.138e-01,4.790e-02
3.182e-01,7.755e-02
3.226e-01,5.018e-02
3.270e-01,8.895e-02
3.314e-01,7.983e-02
3.357e-01,1.323e-01
3.401e-01,1.414e-01
3.445e-01,2.007e-01
3.489e-01,2.600e-01
3.533e-01,3.763e-01
3.577e-01,4.219e-01
3.620e-01,4.630e-01
3.664e-01,6.272e-01
3.708e-01,7.412e-01
3.752e-01,8.667e-01
3.796e-01,1.074e+00
3.840e-01,1.364e+00
3.884e-01,1.494e+00
3.927e-01,1.870e+00
3.971e-01,2.121e+00
4.015e-01,2.267e+00
4.059e-01,2.787e+00
4.103e-01,3.104e+00
4.147e-01,3.567e+00
4.190e-01,3.802e+00
4.234e-01,4.313e+00
4.278e-01,4.584e+00
4.322e-01,5.004e+00
4.366e-01,5.332e+00
4.410e-01,5.861e+00
4.454e-01,6.215e+00
4.497e-01,6.831e+00
4.541e-01,6.776e+00
4.585e-01,7.006e+00
4.629e-01,7.168e+00
4.673e-01,7.513e+00
4.717e-01,7.419e+00
4.760e-01,7.873e+00
4.804e-01,7.552e+00
4.848e-01,7.597e+00
4.892e-01,7.351e+00
4.936e-01,7.107e+00
4.980e-01,7.098e+00
5.024e-01,6.714e+00
5.067e-01,6.555e+00
5.111e-01,6.343e+00
5.155e-01,5.741e+00
5.199e-01,5.647e+00
5.243e-01,4.942e+00
5.287e-01,4.881e+00
5.330e-01,4.491e+00
5.374e-01,4.055e+00
5.418e-01,3.759e+00
5.462e-01,3.524e+00
5.506e-01,3.200e+00
5.550e-01,2.751e+00
5.594e-01,2.477e+00
5.637e-01,2.167e+00
5.681e-01,1.982e+00
5.725e-01,1.811e+00
5.769e-01,1.647e+00
5.813e-01,1.275e+00
5.857e-01,1.138e+00
5.900e-01,9.716e-01
5.944e-01,7.983e-01
5.988e-01,8.119e-01
6.032e-01,6.386e-01
6.076e-01,5.200e-01
6.120e-01,4.561e-01
6.164e-01,3.832e-01
6.207e-01,3.170e-01
6.251e-01,2.532e-01
6.295e-01,2.235e-01
6.339e-01,1.733e-01
6.383e-01,1.368e-01
6.427e-01,1.095e-01
6.470e-01,8.211e-02
6.514e-01,6.386e-02
6.558e-01,6.386e-02
6.602e-01,3.421e-02
6.646e-01,4.333e-02
6.690e-01,2.737e-02
6.734e-01,4.333e-02
6.777e-01,2.281e-02
6.821e-01,9.123e-03
6.865e-01,9.123e-03
6.909e-01,6.842e-03
6.953e-01,0.000e+00
6.997e-01,9.123e-03
7.040e-01,4.561e-03
7.084e-01,4.561e-03
7.128e-01,2.281e-03
7.172e-01,2.281e-03
7.216e-01,0.000e+00
7.260e-01,0.000e+00
7.304e-01,0.000e+00
7.347e-01,0.000e+00
7.391e-01,2.281e-03
7.435e-01,0.000e+00
7.479e-01,0.000e+00
7.523e-01,2.281e-03
7.567e-01,0.000e+00
7.610e-01,0.000e+00
7.654e-01,0.000e+00
7.698e-01,0.000e+00
7.742e-01,0.000e+00
7.786e-01,0.000e+00
7.830e-01,0.000e+00
7.873e-01,0.000e+00
7.917e-01,0.000e+00
7.961e-01,0.000e+00
8.005e-01,0.000e+00
8.049e-01,0.000e+00
8.093e-01,0.000e+00
8.137e-01,0.000e+00
8.180e-01,0.000e+00
8.224e-01,0.000e+00
8.268e-01,0.000e+00
8.312e-01,0.000e+00
8.356e-01,0.000e+00
8.400e-01,0.000e+00
8.443e-01,0.000e+00
8.487e-01,0.000e+00
8.531e-01,0.000e+00
8.575e-01,0.000e+00
8.619e-01,0.000e+00
8.663e-01,0.000e+00
8.707e-01,0.000e+00
8.750e-01,0.000e+00
8.794e-01,0.000e+00
8.838e-01,0.000e+00
8.882e-01,0.000e+00
8.926e-01,0.000e+00
8.970e-01,0.000e+00
9.013e-01,0.000e+00
9.057e-01,0.000e+00
9.101e-01,0.000e+00
9.145e-01,0.000e+00
9.189e-01,0.000e+00
9.233e-01,0.000e+00
9.277e-01,0.000e+00
9.320e-01,0.000e+00
9.364e-01,0.000e+00
9.408e-01,0.000e+00
9.452e-01,0.000e+00
9.496e-01,0.000e+00
9.540e-01,0.000e+00
9.583e-01,0.000e+00
9.627e-01,0.000e+00
9.671e-01,0.000e+00
9.715e-01,0.000e+00
9.759e-01,0.000e+00
9.803e-01,0.000e+00
9.847e-01,0.000e+00
9.890e-01,0.000e+00
9.934e-01,0.000e+00
9.978e-01,0.000e+00
