transmittance,probability_density
1.803e-03,0.000e+00
5.409e-03,0.000e+00
9.015e-03,0.000e+00
1.262e-02,0.000e+00
1.623e-02,0.000e+00
1.983e-02,0.000e+00
2.344e-02,0.000e+00
2.704e-02,0.000e+00
3.065e-02,0.000e+00
3.426e-02,0.000e+00
3.786e-02,0.000e+00
4.147e-02,0.000e+00
4.507e-02,0.000e+00
4.868e-02,0.000e+00
5.228e-02,0.000e+00
5.589e-02,0.000e+00
5.950e-02,0.000e+00
6.310e-02,0.000e+00
6.671e-02,0.000e+00
7.031e-02,0.000e+00
7.392e-02,0.000e+00
7.752e-02,0.000e+00
8.113e-02,0.000e+00
8.474e-02,0.000e+00
8.834e-02,0.000e+00
9.195e-02,0.000e+00
9.555e-02,0.000e+00
9.916e-02,0.000e+00
1.028e-01,0.000e+00
1.064e-01,0.000e+00
1.100e-01,0.000e+00
1.136e-01,0.000e+00
1.172e-01,0.000e+00
1.208e-01,0.000e+00
1.244e-01,0.000e+00
1.280e-01,0.000e+00
1.316e-01,0.000e+00
1.352e-01,2.773e-03
1.388e-01,0.000e+00
1.424e-01,0.000e+00
1.460e-01,2.773e-03
1.496e-01,1.109e-02
1.532e-01,2.773e-03
1.569e-01,2.773e-03
1.605e-01,5.547e-03
1.641e-01,1.387e-02
1.677e-01,2.219e-02
1.713e-01,4.715e-02
1.749e-01,4.715e-02
1.785e-01,3.605e-02
1.821e-01,1.193e-01
1.857e-01,7.211e-02
1.893e-01,1.082e-01
1.929e-01,1.581e-01
1.965e-01,2.080e-01
2.001e-01,2.884e-01
2.037e-01,3.855e-01
2.073e-01,5.186e-01
2.109e-01,7.294e-01
2.145e-01,7.765e-01
2.182e-01,1.082e+00
2.218e-01,1.315e+00
2.254e-01,1.711e+00
2.290e-01,2.166e+00
2.326e-01,2.463e+00
2.362e-01,3.023e+00
2.398e-01,3.397e+00
2.434e-01,4.229e+00
2.470e-01,4.798e+00
2.506e-01,5.438e+00
2.542e-01,6.018e+00
2.578e-01,6.587e+00
2.614e-01,7.144e+00
2.650e-01,7.907e+00
2.686e-01,8.733e+00
2.722e-01,9.413e+00
2.758e-01,9.346e+00
2.794e-01,9.953e+00
2.831e-01,1.007e+01
2.867e-01,1.024e+01
2.903e-01,1.054e+01
2.939e-01,1.072e+01
2.975e-01,1.031e+01
3.011e-01,1.010e+01
3.047e-01,9.585e+00
3.083e-01,9.598e+00
3.119e-01,9.049e+00
3.155e-01,8.594e+00
3.191e-01,8.195e+00
3.227e-01,7.652e+00
3.263e-01,6.845e+00
3.299e-01,6.490e+00
3.335e-01,6.165e+00
3.371e-01,5.300e+00
3.407e-01,4.809e+00
3.444e-01,4.601e+00
3.480e-01,4.118e+00
3.516e-01,3.605e+00
3.552e-01,3.042e+00
3.588e-01,2.807e+00
3.624e-01,2.371e+00
3.660e-01,2.277e+00
3.696e-01,1.866e+00
3.732e-01,1.545e+00
3.768e-01,1.334e+00
3.804e-01,1.140e+00
3.840e-01,1.007e+00
3.876e-01,8.764e-01
3.912e-01,7.627e-01
3.948e-01,6.046e-01
3.984e-01,4.853e-01
4.020e-01,4.465e-01
4.057e-01,3.633e-01
4.093e-01,3.134e-01
4.129e-01,2.246e-01
4.165e-01,1.969e-01
4.201e-01,1.331e-01
4.237e-01,1.387e-01
4.273e-01,1.054e-01
4.309e-01,7.488e-02
4.345e-01,7.211e-02
4.381e-01,4.160e-02
4.417e-01,4.715e-02
4.453e-01,2.496e-02
4.489e-01,5.269e-02
4.525e-01,3.605e-02
4.561e-01,1.387e-02
4.597e-01,1.387e-02
4.633e-01,1.109e-02
4.670e-01,2.773e-03
4.706e-01,5.547e-03
4.742e-01,5.547e-03
4.778e-01,5.547e-03
4.814e-01,2.773e-03
4.850e-01,8.320e-03
4.886e-01,2.773e-03
4.922e-01,0.000e+00
4.958e-01,0.000e+00
4.994e-01,0.000e+00
5.030e-01,0.000e+00
5.066e-01,0.000e+00
5.102e-01,0.000e+00
5.138e-01,2.773e-03
5.174e-01,0.000e+00
5.210e-01,0.000e+00
5.246e-01,2.773e-03
5.282e-01,0.000e+00
5.319e-01,0.000e+00
5.355e-01,0.000e+00
5.391e-01,0.000e+00
5.427e-01,0.000e+00
5.463e-01,0.000e+00
5.499e-01,0.000e+00
5.535e-01,0.000e+00
5.571e-01,0.000e+00
5.607e-01,0.000e+00
5.643e-01,0.000e+00
5.679e-01,0.000e+00
5.715e-01,0.000e+00
5.751e-01,0.000e+00
5.787e-01,0.000e+00
5.823e-01,0.000e+00
5.859e-01,0.000e+00
5.895e-01,0.000e+00
5.932e-01,0.000e+00
5.968e-01,0.000e+00
6.004e-01,0.000e+00
6.040e-01,0.000e+00
6.076e-01,0.000e+00
6.112e-01,0.000e+00
6.148e-01,0.000e+00
6.184e-01,0.000e+00
6.220e-01,0.000e+00
6.256e-01,0.000e+00
6.292e-01,0.000e+00
6.328e-01,0.000e+00
6.364e-01,0.000e+00
6.400e-01,0.000e+00
6.436e-01,0.000e+00
6.472e-01,0.000e+00
6.508e-01,0.000e+00
6.545e-01,0.000e+00
6.581e-01,0.000e+00
6.617e-01,0.000e+00
6.653e-01,0.000e+00
6.689e-01,0.000e+00
6.725e-01,0.000e+00
6.761e-01,0.000e+00
6.797e-01,0.000e+00
6.833e-01,0.000e+00
6.869e-01,0.000e+00
6.905e-01,0.000e+00
6.941e-01,0.000e+00
6.977e-01,0.000e+00
7.013e-01,0.000e+00
7.049e-01,0.000e+00
7.085e-01,0.000e+00
7.121e-01,0.000e+00
7.158e-01,0.000e+00
7.194e-01,0.000e+00
