transmittance,probability_density
4.352e-01,0.000e+00
4.381e-01,0.000e+00
4.409e-01,0.000e+00
4.437e-01,0.000e+00
4.466e-01,0.000e+00
4.494e-01,0.000e+00
4.522e-01,0.000e+00
4.550e-01,0.000e+00
4.579e-01,0.000e+00
4.607e-01,0.000e+00
4.635e-01,0.000e+00
4.664e-01,0.000e+00
4.692e-01,0.000e+00
4.720e-01,0.000e+00
4.749e-01,0.000e+00
4.777e-01,0.000e+00
4.805e-01,0.000e+00
4.834e-01,0.000e+00
4.862e-01,0.000e+00
4.890e-01,0.000e+00
4.919e-01,0.000e+00
4.947e-01,0.000e+00
4.975e-01,0.000e+00
5.003e-01,0.000e+00
5.032e-01,0.000e+00
5.060e-01,0.000e+00
5.088e-01,0.000e+00
5.117e-01,0.000e+00
5.145e-01,0.000e+00
5.173e-01,0.000e+00
5.202e-01,0.000e+00
5.230e-01,0.000e+00
5.258e-01,0.000e+00
5.287e-01,0.000e+00
5.315e-01,0.000e+00
5.343e-01,0.000e+00
5.371e-01,0.000e+00
5.400e-01,0.000e+00
5.428e-01,0.000e+00
5.456e-01,0.000e+00
5.485e-01,0.000e+00
5.513e-01,3.532e-03
5.541e-01,0.000e+00
5.570e-01,0.000e+00
5.598e-01,0.000e+00
5.626e-01,0.000e+00
5.655e-01,0.000e+00
5.683e-01,3.532e-03
5.711e-01,0.000e+00
5.739e-01,3.532e-03
5.768e-01,3.532e-03
5.796e-01,0.000e+00
5.824e-01,0.000e+00
5.853e-01,3.532e-03
5.881e-01,7.065e-03
5.909e-01,0.000e+00
5.938e-01,7.065e-03
5.966e-01,1.060e-02
5.994e-01,1.413e-02
6.023e-01,1.060e-02
6.051e-01,7.065e-03
6.079e-01,0.000e+00
6.107e-01,0.000e+00
6.136e-01,0.000e+00
6.164e-01,2.119e-02
6.192e-01,4.239e-02
6.221e-01,2.826e-02
6.249e-01,2.119e-02
6.277e-01,2.826e-02
6.306e-01,4.239e-02
6.334e-01,4.592e-02
6.362e-01,4.592e-02
6.391e-01,4.592e-02
6.419e-01,4.592e-02
6.447e-01,5.652e-02
6.476e-01,6.358e-02
6.504e-01,8.831e-02
6.532e-01,6.712e-02
6.560e-01,1.024e-01
6.589e-01,1.272e-01
6.617e-01,1.590e-01
6.645e-01,1.696e-01
6.674e-01,1.448e-01
6.702e-01,2.331e-01
6.730e-01,2.331e-01
6.759e-01,2.649e-01
6.787e-01,3.709e-01
6.815e-01,3.179e-01
6.844e-01,3.568e-01
6.872e-01,3.956e-01
6.900e-01,4.839e-01
6.928e-01,4.486e-01
6.957e-01,5.899e-01
6.985e-01,7.171e-01
7.013e-01,7.241e-01
7.042e-01,9.008e-01
7.070e-01,8.089e-01
7.098e-01,1.099e+00
7.127e-01,1.173e+00
7.155e-01,1.159e+00
7.183e-01,1.378e+00
7.212e-01,1.597e+00
7.240e-01,1.664e+00
7.268e-01,1.883e+00
7.296e-01,1.865e+00
7.325e-01,2.098e+00
7.353e-01,2.413e+00
7.381e-01,2.554e+00
7.410e-01,2.780e+00
7.438e-01,3.041e+00
7.466e-01,3.232e+00
7.495e-01,3.501e+00
7.523e-01,3.550e+00
7.551e-01,4.027e+00
7.580e-01,4.320e+00
7.608e-01,4.366e+00
7.636e-01,4.892e+00
7.664e-01,4.811e+00
7.693e-01,5.041e+00
7.721e-01,5.440e+00
7.749e-01,5.938e+00
7.778e-01,6.171e+00
7.806e-01,6.369e+00
7.834e-01,6.687e+00
7.863e-01,6.853e+00
7.891e-01,7.178e+00
7.919e-01,7.323e+00
7.948e-01,7.538e+00
7.976e-01,7.715e+00
8.004e-01,7.828e+00
8.033e-01,7.930e+00
8.061e-01,8.206e+00
8.089e-01,8.397e+00
8.117e-01,8.294e+00
8.146e-01,8.626e+00
8.174e-01,8.474e+00
8.202e-01,8.326e+00
8.231e-01,8.156e+00
8.259e-01,7.877e+00
8.287e-01,8.160e+00
8.316e-01,7.870e+00
8.344e-01,7.969e+00
8.372e-01,7.453e+00
8.401e-01,7.556e+00
8.429e-01,7.100e+00
8.457e-01,6.878e+00
8.485e-01,6.493e+00
8.514e-01,6.348e+00
8.542e-01,6.040e+00
8.570e-01,5.931e+00
8.599e-01,5.235e+00
8.627e-01,4.967e+00
8.655e-01,4.839e+00
8.684e-01,4.557e+00
8.712e-01,3.953e+00
8.740e-01,3.801e+00
8.769e-01,3.479e+00
8.797e-01,3.059e+00
8.825e-01,2.890e+00
8.853e-01,2.688e+00
8.882e-01,2.331e+00
8.910e-01,2.006e+00
8.938e-01,1.851e+00
8.967e-01,1.498e+00
8.995e-01,1.381e+00
9.023e-01,1.222e+00
9.052e-01,1.067e+00
9.080e-01,8.372e-01
9.108e-01,7.948e-01
9.137e-01,6.394e-01
9.165e-01,5.051e-01
9.193e-01,3.992e-01
9.222e-01,3.391e-01
9.250e-01,2.720e-01
9.278e-01,1.978e-01
9.306e-01,1.201e-01
9.335e-01,1.342e-01
9.363e-01,7.065e-02
9.391e-01,8.831e-02
9.420e-01,7.418e-02
9.448e-01,3.886e-02
9.476e-01,2.826e-02
9.505e-01,3.532e-03
9.533e-01,1.413e-02
9.561e-01,1.413e-02
9.590e-01,7.065e-03
9.618e-01,0.000e+00
9.646e-01,0.000e+00
9.674e-01,3.532e-03
9.703e-01,3.532e-03
9.731e-01,0.000e+00
9.759e-01,0.000e+00
9.788e-01,0.000e+00
9.816e-01,0.000e+00
9.844e-01,0.000e+00
9.873e-01,0.000e+00
9.901e-01,0.000e+00
9.929e-01,0.000e+00
9.958e-01,0.000e+00
9.986e-01,0.000e+00
