transmittance,probability_density
4.909e-01,0.000e+00
4.935e-01,0.000e+00
4.960e-01,0.000e+00
4.986e-01,0.000e+00
5.011e-01,0.000e+00
5.037e-01,0.000e+00
5.062e-01,0.000e+00
5.088e-01,0.000e+00
5.113e-01,0.000e+00
5.139e-01,0.000e+00
5.164e-01,0.000e+00
5.190e-01,0.000e+00
5.215e-01,0.000e+00
5.241e-01,0.000e+00
5.266e-01,0.000e+00
5.292e-01,0.000e+00
5.317e-01,0.000e+00
5.343e-01,0.000e+00
5.368e-01,0.000e+00
5.394e-01,0.000e+00
5.419e-01,0.000e+00
5.445e-01,0.000e+00
5.471e-01,0.000e+00
5.496e-01,0.000e+00
5.522e-01,0.000e+00
5.547e-01,0.000e+00
5.573e-01,0.000e+00
5.598e-01,0.000e+00
5.624e-01,0.000e+00
5.649e-01,0.000e+00
5.675e-01,0.000e+00
5.700e-01,0.000e+00
5.726e-01,0.000e+00
5.751e-01,0.000e+00
5.777e-01,0.000e+00
5.802e-01,0.000e+00
5.828e-01,0.000e+00
5.853e-01,0.000e+00
5.879e-01,0.000e+00
5.904e-01,0.000e+00
5.930e-01,0.000e+00
5.955e-01,0.000e+00
5.981e-01,0.000e+00
6.006e-01,0.000e+00
6.032e-01,0.000e+00
6.057e-01,0.000e+00
6.083e-01,0.000e+00
6.108e-01,0.000e+00
6.134e-01,0.000e+00
6.160e-01,3.919e-03
6.185e-01,0.000e+00
6.211e-01,0.000e+00
6.236e-01,0.000e+00
6.262e-01,0.000e+00
6.287e-01,3.919e-03
6.313e-01,0.000e+00
6.338e-01,0.000e+00
6.364e-01,0.000e+00
6.389e-01,7.838e-03
6.415e-01,0.000e+00
6.440e-01,3.919e-03
6.466e-01,7.838e-03
6.491e-01,0.000e+00
6.517e-01,3.919e-03
6.542e-01,3.919e-03
6.568e-01,1.176e-02
6.593e-01,1.568e-02
6.619e-01,7.838e-03
6.644e-01,3.919e-03
6.670e-01,7.838e-03
6.695e-01,0.000e+00
6.721e-01,0.000e+00
6.746e-01,1.959e-02
6.772e-01,1.568e-02
6.797e-01,4.703e-02
6.823e-01,2.351e-02
6.849e-01,2.743e-02
6.874e-01,3.527e-02
6.900e-01,4.703e-02
6.925e-01,3.919e-02
6.951e-01,4.703e-02
6.976e-01,5.094e-02
7.002e-01,4.311e-02
7.027e-01,4.311e-02
7.053e-01,5.094e-02
7.078e-01,1.058e-01
7.104e-01,7.838e-02
7.129e-01,1.058e-01
7.155e-01,1.293e-01
7.180e-01,1.176e-01
7.206e-01,1.685e-01
7.231e-01,1.685e-01
7.257e-01,2.077e-01
7.282e-01,2.547e-01
7.308e-01,2.586e-01
7.333e-01,2.822e-01
7.359e-01,3.096e-01
7.384e-01,4.076e-01
7.410e-01,3.449e-01
7.435e-01,4.076e-01
7.461e-01,5.447e-01
7.486e-01,4.898e-01
7.512e-01,6.231e-01
7.537e-01,6.975e-01
7.563e-01,8.229e-01
7.589e-01,8.229e-01
7.614e-01,8.386e-01
7.640e-01,1.121e+00
7.665e-01,1.230e+00
7.691e-01,1.254e+00
7.716e-01,1.387e+00
7.742e-01,1.505e+00
7.767e-01,1.724e+00
7.793e-01,2.010e+00
7.818e-01,1.924e+00
7.844e-01,2.167e+00
7.869e-01,2.308e+00
7.895e-01,2.649e+00
7.920e-01,2.786e+00
7.946e-01,3.166e+00
7.971e-01,3.351e+00
7.997e-01,3.394e+00
8.022e-01,3.840e+00
8.048e-01,3.966e+00
8.073e-01,4.534e+00
8.099e-01,4.703e+00
8.124e-01,4.965e+00
8.150e-01,5.141e+00
8.175e-01,5.392e+00
8.201e-01,5.592e+00
8.226e-01,6.011e+00
8.252e-01,6.662e+00
8.278e-01,6.921e+00
8.303e-01,7.019e+00
8.329e-01,7.461e+00
8.354e-01,7.540e+00
8.380e-01,8.022e+00
8.405e-01,8.323e+00
8.431e-01,8.504e+00
8.456e-01,8.692e+00
8.482e-01,8.653e+00
8.507e-01,9.146e+00
8.533e-01,9.366e+00
8.558e-01,9.421e+00
8.584e-01,9.448e+00
8.609e-01,9.887e+00
8.635e-01,9.683e+00
8.660e-01,9.440e+00
8.686e-01,9.311e+00
8.711e-01,9.432e+00
8.737e-01,8.939e+00
8.762e-01,9.511e+00
8.788e-01,8.727e+00
8.813e-01,8.817e+00
8.839e-01,8.394e+00
8.864e-01,8.257e+00
8.890e-01,7.900e+00
8.915e-01,7.379e+00
8.941e-01,7.160e+00
8.967e-01,7.160e+00
8.992e-01,6.313e+00
9.018e-01,5.988e+00
9.043e-01,5.651e+00
9.069e-01,5.380e+00
9.094e-01,4.706e+00
9.120e-01,4.467e+00
9.145e-01,4.005e+00
9.171e-01,3.641e+00
9.196e-01,3.331e+00
9.222e-01,2.814e+00
9.247e-01,2.696e+00
9.273e-01,2.340e+00
9.298e-01,1.736e+00
9.324e-01,1.783e+00
9.349e-01,1.368e+00
9.375e-01,1.191e+00
9.400e-01,1.023e+00
9.426e-01,8.660e-01
9.451e-01,5.957e-01
9.477e-01,5.094e-01
9.502e-01,4.232e-01
9.528e-01,2.704e-01
9.553e-01,1.920e-01
9.579e-01,1.607e-01
9.604e-01,1.176e-01
9.630e-01,1.058e-01
9.656e-01,6.662e-02
9.681e-01,3.135e-02
9.707e-01,1.176e-02
9.732e-01,2.351e-02
9.758e-01,7.838e-03
9.783e-01,0.000e+00
9.809e-01,3.919e-03
9.834e-01,3.919e-03
9.860e-01,0.000e+00
9.885e-01,0.000e+00
9.911e-01,0.000e+00
9.936e-01,0.000e+00
9.962e-01,0.000e+00
9.987e-01,0.000e+00
