transmittance,probability_density
4.078e-01,0.000e+00
4.108e-01,0.000e+00
4.138e-01,0.000e+00
4.168e-01,0.000e+00
4.197e-01,0.000e+00
4.227e-01,0.000e+00
4.257e-01,0.000e+00
4.286e-01,0.000e+00
4.316e-01,0.000e+00
4.346e-01,0.000e+00
4.375e-01,0.000e+00
4.405e-01,0.000e+00
4.435e-01,0.000e+00
4.464e-01,0.000e+00
4.494e-01,0.000e+00
4.524e-01,0.000e+00
4.553e-01,0.000e+00
4.583e-01,0.000e+00
4.613e-01,0.000e+00
4.642e-01,0.000e+00
4.672e-01,0.000e+00
4.702e-01,0.000e+00
4.731e-01,0.000e+00
4.761e-01,0.000e+00
4.791e-01,0.000e+00
4.821e-01,0.000e+00
4.850e-01,0.000e+00
4.880e-01,0.000e+00
4.910e-01,0.000e+00
4.939e-01,0.000e+00
4.969e-01,0.000e+00
4.999e-01,0.000e+00
5.028e-01,0.000e+00
5.058e-01,0.000e+00
5.088e-01,0.000e+00
5.117e-01,0.000e+00
5.147e-01,0.000e+00
5.177e-01,3.369e-03
5.206e-01,0.000e+00
5.236e-01,0.000e+00
5.266e-01,0.000e+00
5.295e-01,0.000e+00
5.325e-01,0.000e+00
5.355e-01,3.369e-03
5.384e-01,0.000e+00
5.414e-01,6.738e-03
5.444e-01,0.000e+00
5.474e-01,0.000e+00
5.503e-01,0.000e+00
5.533e-01,3.369e-03
5.563e-01,1.011e-02
5.592e-01,3.369e-03
5.622e-01,3.369e-03
5.652e-01,1.011e-02
5.681e-01,2.021e-02
5.711e-01,6.738e-03
5.741e-01,0.000e+00
5.770e-01,0.000e+00
5.800e-01,0.000e+00
5.830e-01,2.021e-02
5.859e-01,4.043e-02
5.889e-01,2.695e-02
5.919e-01,1.685e-02
5.948e-01,3.706e-02
5.978e-01,3.706e-02
6.008e-01,3.706e-02
6.037e-01,5.391e-02
6.067e-01,5.054e-02
6.097e-01,4.380e-02
6.127e-01,6.064e-02
6.156e-01,4.380e-02
6.186e-01,9.433e-02
6.216e-01,9.096e-02
6.245e-01,9.096e-02
6.275e-01,1.381e-01
6.305e-01,1.651e-01
6.334e-01,1.685e-01
6.364e-01,1.718e-01
6.394e-01,2.055e-01
6.423e-01,2.560e-01
6.453e-01,3.538e-01
6.483e-01,2.931e-01
6.512e-01,3.504e-01
6.542e-01,3.975e-01
6.572e-01,4.043e-01
6.601e-01,4.649e-01
6.631e-01,5.424e-01
6.661e-01,6.637e-01
6.690e-01,7.311e-01
6.720e-01,8.490e-01
6.750e-01,7.850e-01
6.780e-01,1.028e+00
6.809e-01,1.102e+00
6.839e-01,1.226e+00
6.869e-01,1.274e+00
6.898e-01,1.509e+00
6.928e-01,1.668e+00
6.958e-01,1.829e+00
6.987e-01,1.806e+00
7.017e-01,2.075e+00
7.047e-01,2.379e+00
7.076e-01,2.432e+00
7.106e-01,2.793e+00
7.136e-01,2.911e+00
7.165e-01,3.197e+00
7.195e-01,3.457e+00
7.225e-01,3.430e+00
7.254e-01,4.023e+00
7.284e-01,4.124e+00
7.314e-01,4.282e+00
7.343e-01,4.798e+00
7.373e-01,4.575e+00
7.403e-01,4.942e+00
7.433e-01,5.391e+00
7.462e-01,5.764e+00
7.492e-01,5.957e+00
7.522e-01,6.273e+00
7.551e-01,6.469e+00
7.581e-01,6.651e+00
7.611e-01,6.819e+00
7.640e-01,6.974e+00
7.670e-01,7.355e+00
7.700e-01,7.429e+00
7.729e-01,7.345e+00
7.759e-01,7.749e+00
7.789e-01,7.756e+00
7.818e-01,8.106e+00
7.848e-01,7.897e+00
7.878e-01,8.076e+00
7.907e-01,8.157e+00
7.937e-01,7.628e+00
7.967e-01,7.766e+00
7.996e-01,7.614e+00
8.026e-01,7.402e+00
8.056e-01,7.392e+00
8.086e-01,7.483e+00
8.115e-01,6.960e+00
8.145e-01,7.004e+00
8.175e-01,6.590e+00
8.204e-01,6.398e+00
8.234e-01,5.980e+00
8.264e-01,5.916e+00
8.293e-01,5.667e+00
8.323e-01,5.495e+00
8.353e-01,4.757e+00
8.382e-01,4.626e+00
8.412e-01,4.531e+00
8.442e-01,4.323e+00
8.471e-01,3.726e+00
8.501e-01,3.440e+00
8.531e-01,3.197e+00
8.560e-01,2.881e+00
8.590e-01,2.773e+00
8.620e-01,2.372e+00
8.649e-01,2.311e+00
8.679e-01,1.988e+00
8.709e-01,1.715e+00
8.739e-01,1.567e+00
8.768e-01,1.263e+00
8.798e-01,1.236e+00
8.828e-01,9.838e-01
8.857e-01,9.602e-01
8.887e-01,7.547e-01
8.917e-01,6.704e-01
8.946e-01,5.492e-01
8.976e-01,4.649e-01
9.006e-01,3.605e-01
9.035e-01,3.100e-01
9.065e-01,2.493e-01
9.095e-01,1.819e-01
9.124e-01,1.415e-01
9.154e-01,1.044e-01
9.184e-01,8.760e-02
9.213e-01,8.086e-02
9.243e-01,7.075e-02
9.273e-01,6.064e-02
9.302e-01,2.695e-02
9.332e-01,2.695e-02
9.362e-01,3.369e-03
9.392e-01,1.348e-02
9.421e-01,1.348e-02
9.451e-01,3.369e-03
9.481e-01,3.369e-03
9.510e-01,0.000e+00
9.540e-01,0.000e+00
9.570e-01,3.369e-03
9.599e-01,0.000e+00
9.629e-01,3.369e-03
9.659e-01,0.000e+00
9.688e-01,0.000e+00
9.718e-01,0.000e+00
9.748e-01,0.000e+00
9.777e-01,0.000e+00
9.807e-01,0.000e+00
9.837e-01,0.000e+00
9.866e-01,0.000e+00
9.896e-01,0.000e+00
9.926e-01,0.000e+00
9.955e-01,0.000e+00
9.985e-01,0.000e+00
