transmittance,probability_density
3.533e-01,0.000e+00
3.558e-01,0.000e+00
3.583e-01,0.000e+00
3.608e-01,0.000e+00
3.634e-01,0.000e+00
3.659e-01,0.000e+00
3.684e-01,0.000e+00
3.710e-01,0.000e+00
3.735e-01,0.000e+00
3.760e-01,0.000e+00
3.785e-01,0.000e+00
3.811e-01,0.000e+00
3.836e-01,0.000e+00
3.861e-01,3.955e-03
3.887e-01,7.910e-03
3.912e-01,0.000e+00
3.937e-01,0.000e+00
3.962e-01,7.910e-03
3.988e-01,0.000e+00
4.013e-01,7.910e-03
4.038e-01,7.910e-03
4.064e-01,3.955e-03
4.089e-01,3.955e-03
4.114e-01,3.955e-03
4.139e-01,1.978e-02
4.165e-01,1.187e-02
4.190e-01,2.373e-02
4.215e-01,1.582e-02
4.241e-01,3.164e-02
4.266e-01,3.164e-02
4.291e-01,3.955e-02
4.316e-01,4.746e-02
4.342e-01,3.164e-02
4.367e-01,4.351e-02
4.392e-01,5.142e-02
4.418e-01,3.164e-02
4.443e-01,5.537e-02
4.468e-01,6.724e-02
4.493e-01,9.097e-02
4.519e-01,1.028e-01
4.544e-01,1.582e-01
4.569e-01,2.017e-01
4.595e-01,1.345e-01
4.620e-01,1.701e-01
4.645e-01,2.294e-01
4.670e-01,1.859e-01
4.696e-01,2.610e-01
4.721e-01,3.283e-01
4.746e-01,3.283e-01
4.772e-01,3.599e-01
4.797e-01,5.023e-01
4.822e-01,4.983e-01
4.847e-01,5.735e-01
4.873e-01,6.447e-01
4.898e-01,7.159e-01
4.923e-01,7.989e-01
4.949e-01,9.730e-01
4.974e-01,1.103e+00
4.999e-01,1.210e+00
5.024e-01,1.274e+00
5.050e-01,1.297e+00
5.075e-01,1.448e+00
5.100e-01,1.677e+00
5.126e-01,1.701e+00
5.151e-01,2.045e+00
5.176e-01,2.160e+00
5.201e-01,2.286e+00
5.227e-01,2.709e+00
5.252e-01,2.678e+00
5.277e-01,2.725e+00
5.302e-01,3.259e+00
5.328e-01,3.544e+00
5.353e-01,3.429e+00
5.378e-01,4.105e+00
5.404e-01,4.509e+00
5.429e-01,4.485e+00
5.454e-01,4.924e+00
5.479e-01,5.328e+00
5.505e-01,5.339e+00
5.530e-01,5.846e+00
5.555e-01,6.123e+00
5.581e-01,6.866e+00
5.606e-01,6.605e+00
5.631e-01,7.155e+00
5.656e-01,7.349e+00
5.682e-01,7.345e+00
5.707e-01,8.152e+00
5.732e-01,8.029e+00
5.758e-01,8.591e+00
5.783e-01,8.527e+00
5.808e-01,8.476e+00
5.833e-01,9.852e+00
5.859e-01,8.919e+00
5.884e-01,9.006e+00
5.909e-01,9.386e+00
5.935e-01,1.000e+01
5.960e-01,9.255e+00
5.985e-01,9.378e+00
6.010e-01,9.374e+00
6.036e-01,9.180e+00
6.061e-01,8.903e+00
6.086e-01,8.500e+00
6.112e-01,8.757e+00
6.137e-01,8.725e+00
6.162e-01,8.349e+00
6.187e-01,8.128e+00
6.213e-01,7.590e+00
6.238e-01,7.614e+00
6.263e-01,6.811e+00
6.289e-01,6.629e+00
6.314e-01,6.198e+00
6.339e-01,5.826e+00
6.364e-01,5.751e+00
6.390e-01,5.177e+00
6.415e-01,4.742e+00
6.440e-01,4.457e+00
6.466e-01,4.402e+00
6.491e-01,3.888e+00
6.516e-01,3.611e+00
6.541e-01,3.342e+00
6.567e-01,2.915e+00
6.592e-01,2.531e+00
6.617e-01,2.278e+00
6.643e-01,2.195e+00
6.668e-01,1.851e+00
6.693e-01,1.586e+00
6.718e-01,1.527e+00
6.744e-01,1.412e+00
6.769e-01,9.848e-01
6.794e-01,9.967e-01
6.819e-01,8.622e-01
6.845e-01,6.842e-01
6.870e-01,5.893e-01
6.895e-01,5.577e-01
6.921e-01,4.904e-01
6.946e-01,3.204e-01
6.971e-01,3.045e-01
6.996e-01,2.887e-01
7.022e-01,2.492e-01
7.047e-01,2.294e-01
7.072e-01,1.582e-01
7.098e-01,1.345e-01
7.123e-01,1.266e-01
7.148e-01,9.097e-02
7.173e-01,9.097e-02
7.199e-01,3.955e-02
7.224e-01,4.351e-02
7.249e-01,3.560e-02
7.275e-01,5.142e-02
7.300e-01,1.187e-02
7.325e-01,3.955e-03
7.350e-01,0.000e+00
7.376e-01,1.187e-02
7.401e-01,0.000e+00
7.426e-01,0.000e+00
7.452e-01,0.000e+00
7.477e-01,0.000e+00
7.502e-01,0.000e+00
7.527e-01,0.000e+00
7.553e-01,0.000e+00
7.578e-01,3.955e-03
7.603e-01,0.000e+00
7.629e-01,0.000e+00
7.654e-01,0.000e+00
7.679e-01,0.000e+00
7.704e-01,0.000e+00
7.730e-01,0.000e+00
7.755e-01,0.000e+00
7.780e-01,0.000e+00
7.806e-01,3.955e-03
7.831e-01,0.000e+00
7.856e-01,0.000e+00
7.881e-01,0.000e+00
7.907e-01,0.000e+00
7.932e-01,0.000e+00
7.957e-01,0.000e+00
7.983e-01,0.000e+00
8.008e-01,0.000e+00
8.033e-01,0.000e+00
8.058e-01,0.000e+00
8.084e-01,0.000e+00
8.109e-01,0.000e+00
8.134e-01,0.000e+00
8.160e-01,0.000e+00
8.185e-01,0.000e+00
8.210e-01,0.000e+00
8.235e-01,0.000e+00
8.261e-01,0.000e+00
8.286e-01,0.000e+00
8.311e-01,0.000e+00
8.337e-01,0.000e+00
8.362e-01,0.000e+00
8.387e-01,0.000e+00
8.412e-01,0.000e+00
8.438e-01,0.000e+00
8.463e-01,0.000e+00
8.488e-01,0.000e+00
8.513e-01,0.000e+00
8.539e-01,0.000e+00
8.564e-01,0.000e+00
