transmittance,probability_density
3.612e-01,0.000e+00
3.638e-01,0.000e+00
3.665e-01,0.000e+00
3.692e-01,0.000e+00
3.718e-01,0.000e+00
3.745e-01,0.000e+00
3.772e-01,0.000e+00
3.798e-01,0.000e+00
3.825e-01,0.000e+00
3.852e-01,0.000e+00
3.879e-01,0.000e+00
3.905e-01,0.000e+00
3.932e-01,0.000e+00
3.959e-01,9.115e-04
3.985e-01,9.115e-04
4.012e-01,0.000e+00
4.039e-01,0.000e+00
4.066e-01,0.000e+00
4.092e-01,0.000e+00
4.119e-01,0.000e+00
4.146e-01,0.000e+00
4.172e-01,9.115e-04
4.199e-01,0.000e+00
4.226e-01,0.000e+00
4.253e-01,2.735e-03
4.279e-01,9.115e-04
4.306e-01,9.115e-04
4.333e-01,1.823e-03
4.359e-01,9.115e-04
4.386e-01,1.823e-03
4.413e-01,9.115e-04
4.439e-01,1.823e-03
4.466e-01,4.558e-03
4.493e-01,4.558e-03
4.520e-01,1.003e-02
4.546e-01,2.735e-03
4.573e-01,4.558e-03
4.600e-01,9.115e-03
4.626e-01,6.381e-03
4.653e-01,7.292e-03
4.680e-01,8.204e-03
4.707e-01,1.276e-02
4.733e-01,1.914e-02
4.760e-01,1.641e-02
4.787e-01,2.552e-02
4.813e-01,2.826e-02
4.840e-01,2.643e-02
4.867e-01,3.099e-02
4.893e-01,4.284e-02
4.920e-01,4.558e-02
4.947e-01,6.198e-02
4.974e-01,6.654e-02
5.000e-01,9.024e-02
5.027e-01,1.030e-01
5.054e-01,9.206e-02
5.080e-01,1.030e-01
5.107e-01,1.085e-01
5.134e-01,1.386e-01
5.161e-01,1.723e-01
5.187e-01,2.078e-01
5.214e-01,2.215e-01
5.241e-01,2.616e-01
5.267e-01,2.625e-01
5.294e-01,3.555e-01
5.321e-01,3.646e-01
5.348e-01,3.956e-01
5.374e-01,4.685e-01
5.401e-01,5.196e-01
5.428e-01,6.071e-01
5.454e-01,6.599e-01
5.481e-01,7.456e-01
5.508e-01,8.541e-01
5.534e-01,9.261e-01
5.561e-01,1.058e+00
5.588e-01,1.220e+00
5.615e-01,1.253e+00
5.641e-01,1.437e+00
5.668e-01,1.592e+00
5.695e-01,1.870e+00
5.721e-01,1.895e+00
5.748e-01,2.176e+00
5.775e-01,2.397e+00
5.802e-01,2.426e+00
5.828e-01,2.811e+00
5.855e-01,3.096e+00
5.882e-01,3.378e+00
5.908e-01,3.448e+00
5.935e-01,3.996e+00
5.962e-01,4.105e+00
5.989e-01,4.356e+00
6.015e-01,4.854e+00
6.042e-01,5.189e+00
6.069e-01,5.176e+00
6.095e-01,5.832e+00
6.122e-01,6.168e+00
6.149e-01,6.503e+00
6.175e-01,6.730e+00
6.202e-01,7.170e+00
6.229e-01,7.384e+00
6.256e-01,7.412e+00
6.282e-01,8.040e+00
6.309e-01,8.286e+00
6.336e-01,8.571e+00
6.362e-01,8.417e+00
6.389e-01,8.896e+00
6.416e-01,9.184e+00
6.443e-01,8.813e+00
6.469e-01,9.411e+00
6.496e-01,9.479e+00
6.523e-01,9.530e+00
6.549e-01,9.398e+00
6.576e-01,9.411e+00
6.603e-01,9.329e+00
6.629e-01,8.994e+00
6.656e-01,9.047e+00
6.683e-01,9.000e+00
6.710e-01,8.288e+00
6.736e-01,8.279e+00
6.763e-01,8.152e+00
6.790e-01,7.664e+00
6.816e-01,7.121e+00
6.843e-01,7.086e+00
6.870e-01,6.701e+00
6.897e-01,6.123e+00
6.923e-01,5.949e+00
6.950e-01,5.568e+00
6.977e-01,5.212e+00
7.003e-01,4.538e+00
7.030e-01,4.415e+00
7.057e-01,3.993e+00
7.084e-01,3.440e+00
7.110e-01,3.295e+00
7.137e-01,2.970e+00
7.164e-01,2.529e+00
7.190e-01,2.348e+00
7.217e-01,2.142e+00
7.244e-01,1.757e+00
7.270e-01,1.523e+00
7.297e-01,1.458e+00
7.324e-01,1.169e+00
7.351e-01,1.002e+00
7.377e-01,9.015e-01
7.404e-01,7.338e-01
7.431e-01,6.116e-01
7.457e-01,5.232e-01
7.484e-01,4.220e-01
7.511e-01,3.400e-01
7.538e-01,2.616e-01
7.564e-01,2.251e-01
7.591e-01,1.759e-01
7.618e-01,1.468e-01
7.644e-01,1.085e-01
7.671e-01,9.571e-02
7.698e-01,7.474e-02
7.725e-01,5.834e-02
7.751e-01,4.740e-02
7.778e-01,3.281e-02
7.805e-01,2.279e-02
7.831e-01,2.370e-02
7.858e-01,1.458e-02
7.885e-01,1.367e-02
7.911e-01,1.003e-02
7.938e-01,7.292e-03
7.965e-01,3.646e-03
7.992e-01,1.823e-03
8.018e-01,2.735e-03
8.045e-01,9.115e-04
8.072e-01,9.115e-04
8.098e-01,0.000e+00
8.125e-01,9.115e-04
8.152e-01,0.000e+00
8.179e-01,0.000e+00
8.205e-01,0.000e+00
8.232e-01,0.000e+00
8.259e-01,0.000e+00
8.285e-01,0.000e+00
8.312e-01,0.000e+00
8.339e-01,0.000e+00
8.365e-01,0.000e+00
8.392e-01,0.000e+00
8.419e-01,0.000e+00
8.446e-01,0.000e+00
8.472e-01,0.000e+00
8.499e-01,0.000e+00
8.526e-01,0.000e+00
8.552e-01,0.000e+00
8.579e-01,0.000e+00
8.606e-01,0.000e+00
8.633e-01,0.000e+00
8.659e-01,0.000e+00
8.686e-01,0.000e+00
8.713e-01,0.000e+00
8.739e-01,0.000e+00
8.766e-01,0.000e+00
8.793e-01,0.000e+00
8.820e-01,0.000e+00
8.846e-01,0.000e+00
8.873e-01,0.000e+00
8.900e-01,0.000e+00
8.926e-01,0.000e+00
