transmittance,probability_density
4.506e-01,0.000e+00
4.534e-01,0.000e+00
4.562e-01,0.000e+00
4.589e-01,0.000e+00
4.617e-01,0.000e+00
4.644e-01,0.000e+00
4.672e-01,0.000e+00
4.699e-01,0.000e+00
4.727e-01,0.000e+00
4.754e-01,0.000e+00
4.782e-01,0.000e+00
4.809e-01,0.000e+00
4.837e-01,0.000e+00
4.864e-01,0.000e+00
4.892e-01,0.000e+00
4.920e-01,0.000e+00
4.947e-01,1.768e-03
4.975e-01,0.000e+00
5.002e-01,0.000e+00
5.030e-01,0.000e+00
5.057e-01,0.000e+00
5.085e-01,0.000e+00
5.112e-01,0.000e+00
5.140e-01,0.000e+00
5.167e-01,2.652e-03
5.195e-01,0.000e+00
5.222e-01,8.841e-04
5.250e-01,8.841e-04
5.278e-01,2.652e-03
5.305e-01,0.000e+00
5.333e-01,1.768e-03
5.360e-01,8.841e-04
5.388e-01,1.768e-03
5.415e-01,8.841e-04
5.443e-01,5.305e-03
5.470e-01,2.652e-03
5.498e-01,6.189e-03
5.525e-01,5.305e-03
5.553e-01,1.768e-03
5.580e-01,7.957e-03
5.608e-01,9.725e-03
5.635e-01,5.305e-03
5.663e-01,7.073e-03
5.691e-01,1.415e-02
5.718e-01,1.238e-02
5.746e-01,1.680e-02
5.773e-01,2.299e-02
5.801e-01,2.122e-02
5.828e-01,3.448e-02
5.856e-01,3.094e-02
5.883e-01,3.802e-02
5.911e-01,3.890e-02
5.938e-01,5.305e-02
5.966e-01,6.100e-02
5.993e-01,7.515e-02
6.021e-01,7.073e-02
6.049e-01,9.725e-02
6.076e-01,9.902e-02
6.104e-01,1.176e-01
6.131e-01,1.176e-01
6.159e-01,1.565e-01
6.186e-01,1.918e-01
6.214e-01,2.113e-01
6.241e-01,2.246e-01
6.269e-01,2.688e-01
6.296e-01,3.085e-01
6.324e-01,3.227e-01
6.351e-01,4.102e-01
6.379e-01,4.146e-01
6.407e-01,5.013e-01
6.434e-01,5.464e-01
6.462e-01,6.719e-01
6.489e-01,6.878e-01
6.517e-01,8.213e-01
6.544e-01,8.673e-01
6.572e-01,1.035e+00
6.599e-01,1.174e+00
6.627e-01,1.285e+00
6.654e-01,1.425e+00
6.682e-01,1.580e+00
6.709e-01,1.789e+00
6.737e-01,1.955e+00
6.764e-01,2.144e+00
6.792e-01,2.354e+00
6.820e-01,2.701e+00
6.847e-01,2.893e+00
6.875e-01,3.127e+00
6.902e-01,3.340e+00
6.930e-01,3.802e+00
6.957e-01,4.012e+00
6.985e-01,4.471e+00
7.012e-01,4.778e+00
7.040e-01,5.038e+00
7.067e-01,5.640e+00
7.095e-01,5.759e+00
7.122e-01,6.507e+00
7.150e-01,6.574e+00
7.178e-01,7.211e+00
7.205e-01,7.369e+00
7.233e-01,7.860e+00
7.260e-01,7.928e+00
7.288e-01,8.782e+00
7.315e-01,8.593e+00
7.343e-01,9.267e+00
7.370e-01,9.641e+00
7.398e-01,9.333e+00
7.425e-01,1.000e+01
7.453e-01,9.894e+00
7.480e-01,1.029e+01
7.508e-01,9.848e+00
7.535e-01,1.047e+01
7.563e-01,9.969e+00
7.591e-01,1.029e+01
7.618e-01,9.690e+00
7.646e-01,9.902e+00
7.673e-01,9.299e+00
7.701e-01,9.359e+00
7.728e-01,8.822e+00
7.756e-01,8.274e+00
7.783e-01,8.162e+00
7.811e-01,7.410e+00
7.838e-01,7.346e+00
7.866e-01,6.555e+00
7.893e-01,6.233e+00
7.921e-01,5.445e+00
7.949e-01,5.343e+00
7.976e-01,4.550e+00
8.004e-01,4.302e+00
8.031e-01,3.663e+00
8.059e-01,3.309e+00
8.086e-01,2.873e+00
8.114e-01,2.623e+00
8.141e-01,2.237e+00
8.169e-01,1.824e+00
8.196e-01,1.621e+00
8.224e-01,1.267e+00
8.251e-01,1.160e+00
8.279e-01,9.018e-01
8.307e-01,7.585e-01
8.334e-01,5.817e-01
8.362e-01,4.668e-01
8.389e-01,3.625e-01
8.417e-01,2.555e-01
8.444e-01,2.104e-01
8.472e-01,1.689e-01
8.499e-01,1.202e-01
8.527e-01,1.043e-01
8.554e-01,6.277e-02
8.582e-01,5.393e-02
8.609e-01,4.332e-02
8.637e-01,2.033e-02
8.664e-01,1.415e-02
8.692e-01,1.857e-02
8.720e-01,7.957e-03
8.747e-01,3.536e-03
8.775e-01,3.536e-03
8.802e-01,1.768e-03
8.830e-01,8.841e-04
8.857e-01,8.841e-04
8.885e-01,0.000e+00
8.912e-01,0.000e+00
8.940e-01,0.000e+00
8.967e-01,0.000e+00
8.995e-01,0.000e+00
9.022e-01,0.000e+00
9.050e-01,0.000e+00
9.078e-01,0.000e+00
9.105e-01,0.000e+00
9.133e-01,0.000e+00
9.160e-01,0.000e+00
9.188e-01,0.000e+00
9.215e-01,0.000e+00
9.243e-01,0.000e+00
9.270e-01,0.000e+00
9.298e-01,0.000e+00
9.325e-01,0.000e+00
9.353e-01,0.000e+00
9.380e-01,0.000e+00
9.408e-01,0.000e+00
9.436e-01,0.000e+00
9.463e-01,0.000e+00
9.491e-01,0.000e+00
9.518e-01,0.000e+00
9.546e-01,0.000e+00
9.573e-01,0.000e+00
9.601e-01,0.000e+00
9.628e-01,0.000e+00
9.656e-01,0.000e+00
9.683e-01,0.000e+00
9.711e-01,0.000e+00
9.738e-01,0.000e+00
9.766e-01,0.000e+00
9.793e-01,0.000e+00
9.821e-01,0.000e+00
9.849e-01,0.000e+00
9.876e-01,0.000e+00
9.904e-01,0.000e+00
9.931e-01,0.000e+00
9.959e-01,0.000e+00
9.986e-01,0.000e+00
