transmittance,probability_density
8.694e-01,0.000e+00
8.701e-01,0.000e+00
8.707e-01,0.000e+00
8.714e-01,0.000e+00
8.720e-01,0.000e+00
8.727e-01,0.000e+00
8.733e-01,0.000e+00
8.740e-01,0.000e+00
8.747e-01,0.000e+00
8.753e-01,0.000e+00
8.760e-01,0.000e+00
8.766e-01,0.000e+00
8.773e-01,0.000e+00
8.779e-01,0.000e+00
8.786e-01,0.000e+00
8.792e-01,0.000e+00
8.799e-01,0.000e+00
8.805e-01,0.000e+00
8.812e-01,0.000e+00
8.819e-01,0.000e+00
8.825e-01,0.000e+00
8.832e-01,0.000e+00
8.838e-01,0.000e+00
8.845e-01,0.000e+00
8.851e-01,0.000e+00
8.858e-01,0.000e+00
8.864e-01,0.000e+00
8.871e-01,0.000e+00
8.877e-01,0.000e+00
8.884e-01,0.000e+00
8.891e-01,0.000e+00
8.897e-01,0.000e+00
8.904e-01,0.000e+00
8.910e-01,0.000e+00
8.917e-01,0.000e+00
8.923e-01,0.000e+00
8.930e-01,0.000e+00
8.936e-01,0.000e+00
8.943e-01,0.000e+00
8.949e-01,0.000e+00
8.956e-01,0.000e+00
8.963e-01,0.000e+00
8.969e-01,0.000e+00
8.976e-01,0.000e+00
8.982e-01,0.000e+00
8.989e-01,0.000e+00
8.995e-01,0.000e+00
9.002e-01,0.000e+00
9.008e-01,0.000e+00
9.015e-01,0.000e+00
9.021e-01,0.000e+00
9.028e-01,0.000e+00
9.035e-01,0.000e+00
9.041e-01,0.000e+00
9.048e-01,0.000e+00
9.054e-01,0.000e+00
9.061e-01,0.000e+00
9.067e-01,0.000e+00
9.074e-01,0.000e+00
9.080e-01,0.000e+00
9.087e-01,0.000e+00
9.093e-01,0.000e+00
9.100e-01,0.000e+00
9.107e-01,0.000e+00
9.113e-01,0.000e+00
9.120e-01,0.000e+00
9.126e-01,0.000e+00
9.133e-01,0.000e+00
9.139e-01,0.000e+00
9.146e-01,0.000e+00
9.152e-01,0.000e+00
9.159e-01,0.000e+00
9.165e-01,0.000e+00
9.172e-01,0.000e+00
9.179e-01,0.000e+00
9.185e-01,0.000e+00
9.192e-01,0.000e+00
9.198e-01,0.000e+00
9.205e-01,0.000e+00
9.211e-01,0.000e+00
9.218e-01,0.000e+00
9.224e-01,0.000e+00
9.231e-01,0.000e+00
9.237e-01,0.000e+00
9.244e-01,0.000e+00
9.251e-01,0.000e+00
9.257e-01,0.000e+00
9.264e-01,0.000e+00
9.270e-01,0.000e+00
9.277e-01,0.000e+00
9.283e-01,0.000e+00
9.290e-01,0.000e+00
9.296e-01,0.000e+00
9.303e-01,0.000e+00
9.309e-01,0.000e+00
9.316e-01,0.000e+00
9.323e-01,0.000e+00
9.329e-01,0.000e+00
9.336e-01,0.000e+00
9.342e-01,0.000e+00
9.349e-01,0.000e+00
9.355e-01,0.000e+00
9.362e-01,0.000e+00
9.368e-01,0.000e+00
9.375e-01,0.000e+00
9.381e-01,0.000e+00
9.388e-01,0.000e+00
9.395e-01,0.000e+00
9.401e-01,0.000e+00
9.408e-01,0.000e+00
9.414e-01,0.000e+00
9.421e-01,0.000e+00
9.427e-01,0.000e+00
9.434e-01,0.000e+00
9.440e-01,0.000e+00
9.447e-01,0.000e+00
9.453e-01,0.000e+00
9.460e-01,0.000e+00
9.467e-01,0.000e+00
9.473e-01,0.000e+00
9.480e-01,0.000e+00
9.486e-01,0.000e+00
9.493e-01,0.000e+00
9.499e-01,0.000e+00
9.506e-01,0.000e+00
9.512e-01,0.000e+00
9.519e-01,0.000e+00
9.525e-01,0.000e+00
9.532e-01,0.000e+00
9.539e-01,0.000e+00
9.545e-01,0.000e+00
9.552e-01,0.000e+00
9.558e-01,3.719e-03
9.565e-01,3.719e-03
9.571e-01,3.719e-03
9.578e-01,0.000e+00
9.584e-01,3.719e-03
9.591e-01,0.000e+00
9.597e-01,1.116e-02
9.604e-01,1.116e-02
9.611e-01,1.116e-02
9.617e-01,1.488e-02
9.624e-01,1.860e-02
9.630e-01,2.604e-02
9.637e-01,2.232e-02
9.643e-01,3.347e-02
9.650e-01,2.975e-02
9.656e-01,7.439e-02
9.663e-01,6.695e-02
9.669e-01,7.067e-02
9.676e-01,9.298e-02
9.683e-01,1.413e-01
9.689e-01,2.008e-01
9.696e-01,2.269e-01
9.702e-01,3.347e-01
9.709e-01,3.980e-01
9.715e-01,5.430e-01
9.722e-01,7.959e-01
9.728e-01,9.596e-01
9.735e-01,1.532e+00
9.741e-01,1.540e+00
9.748e-01,2.492e+00
9.755e-01,3.057e+00
9.761e-01,4.240e+00
9.768e-01,4.631e+00
9.774e-01,7.673e+00
9.781e-01,8.725e+00
9.787e-01,1.336e+01
9.794e-01,1.756e+01
9.800e-01,2.010e+01
9.807e-01,2.958e+01
9.813e-01,3.282e+01
9.820e-01,5.014e+01
9.827e-01,5.336e+01
9.833e-01,7.669e+01
9.840e-01,8.027e+01
9.846e-01,1.108e+02
9.853e-01,1.113e+02
9.859e-01,1.442e+02
9.866e-01,1.549e+02
9.872e-01,1.326e+02
9.879e-01,1.460e+02
9.885e-01,1.071e+02
9.892e-01,9.751e+01
9.899e-01,5.554e+01
9.905e-01,3.540e+01
9.912e-01,1.375e+01
9.918e-01,5.419e+00
9.925e-01,1.004e+00
9.931e-01,1.413e-01
9.938e-01,1.116e-02
9.944e-01,0.000e+00
9.951e-01,0.000e+00
9.957e-01,0.000e+00
9.964e-01,0.000e+00
9.971e-01,0.000e+00
9.977e-01,0.000e+00
9.984e-01,0.000e+00
9.990e-01,0.000e+00
9.997e-01,0.000e+00
