transmittance,probability_density
8.741e-01,0.000e+00
8.748e-01,0.000e+00
8.754e-01,0.000e+00
8.760e-01,0.000e+00
8.767e-01,0.000e+00
8.773e-01,0.000e+00
8.779e-01,0.000e+00
8.785e-01,0.000e+00
8.792e-01,0.000e+00
8.798e-01,0.000e+00
8.804e-01,0.000e+00
8.811e-01,0.000e+00
8.817e-01,0.000e+00
8.823e-01,0.000e+00
8.830e-01,0.000e+00
8.836e-01,0.000e+00
8.842e-01,0.000e+00
8.849e-01,0.000e+00
8.855e-01,0.000e+00
8.861e-01,0.000e+00
8.868e-01,0.000e+00
8.874e-01,0.000e+00
8.880e-01,0.000e+00
8.886e-01,0.000e+00
8.893e-01,0.000e+00
8.899e-01,0.000e+00
8.905e-01,0.000e+00
8.912e-01,0.000e+00
8.918e-01,0.000e+00
8.924e-01,0.000e+00
8.931e-01,0.000e+00
8.937e-01,0.000e+00
8.943e-01,0.000e+00
8.950e-01,0.000e+00
8.956e-01,0.000e+00
8.962e-01,0.000e+00
8.968e-01,0.000e+00
8.975e-01,0.000e+00
8.981e-01,0.000e+00
8.987e-01,0.000e+00
8.994e-01,0.000e+00
9.000e-01,0.000e+00
9.006e-01,0.000e+00
9.013e-01,0.000e+00
9.019e-01,0.000e+00
9.025e-01,0.000e+00
9.032e-01,0.000e+00
9.038e-01,0.000e+00
9.044e-01,0.000e+00
9.050e-01,0.000e+00
9.057e-01,0.000e+00
9.063e-01,0.000e+00
9.069e-01,0.000e+00
9.076e-01,0.000e+00
9.082e-01,0.000e+00
9.088e-01,0.000e+00
9.095e-01,0.000e+00
9.101e-01,0.000e+00
9.107e-01,0.000e+00
9.114e-01,0.000e+00
9.120e-01,0.000e+00
9.126e-01,0.000e+00
9.133e-01,0.000e+00
9.139e-01,0.000e+00
9.145e-01,0.000e+00
9.151e-01,0.000e+00
9.158e-01,0.000e+00
9.164e-01,0.000e+00
9.170e-01,0.000e+00
9.177e-01,0.000e+00
9.183e-01,0.000e+00
9.189e-01,0.000e+00
9.196e-01,0.000e+00
9.202e-01,0.000e+00
9.208e-01,0.000e+00
9.215e-01,0.000e+00
9.221e-01,0.000e+00
9.227e-01,0.000e+00
9.233e-01,0.000e+00
9.240e-01,0.000e+00
9.246e-01,0.000e+00
9.252e-01,0.000e+00
9.259e-01,0.000e+00
9.265e-01,0.000e+00
9.271e-01,0.000e+00
9.278e-01,0.000e+00
9.284e-01,0.000e+00
9.290e-01,0.000e+00
9.297e-01,0.000e+00
9.303e-01,0.000e+00
9.309e-01,0.000e+00
9.315e-01,0.000e+00
9.322e-01,0.000e+00
9.328e-01,0.000e+00
9.334e-01,0.000e+00
9.341e-01,0.000e+00
9.347e-01,0.000e+00
9.353e-01,0.000e+00
9.360e-01,0.000e+00
9.366e-01,0.000e+00
9.372e-01,0.000e+00
9.379e-01,0.000e+00
9.385e-01,0.000e+00
9.391e-01,0.000e+00
9.397e-01,0.000e+00
9.404e-01,0.000e+00
9.410e-01,0.000e+00
9.416e-01,0.000e+00
9.423e-01,0.000e+00
9.429e-01,0.000e+00
9.435e-01,0.000e+00
9.442e-01,0.000e+00
9.448e-01,0.000e+00
9.454e-01,0.000e+00
9.461e-01,0.000e+00
9.467e-01,0.000e+00
9.473e-01,0.000e+00
9.479e-01,0.000e+00
9.486e-01,0.000e+00
9.492e-01,0.000e+00
9.498e-01,0.000e+00
9.505e-01,0.000e+00
9.511e-01,0.000e+00
9.517e-01,0.000e+00
9.524e-01,0.000e+00
9.530e-01,0.000e+00
9.536e-01,0.000e+00
9.543e-01,0.000e+00
9.549e-01,0.000e+00
9.555e-01,0.000e+00
9.562e-01,0.000e+00
9.568e-01,0.000e+00
9.574e-01,0.000e+00
9.580e-01,0.000e+00
9.587e-01,0.000e+00
9.593e-01,0.000e+00
9.599e-01,0.000e+00
9.606e-01,0.000e+00
9.612e-01,3.859e-03
9.618e-01,0.000e+00
9.625e-01,0.000e+00
9.631e-01,0.000e+00
9.637e-01,3.859e-03
9.644e-01,0.000e+00
9.650e-01,3.859e-03
9.656e-01,3.859e-03
9.662e-01,3.859e-03
9.669e-01,0.000e+00
9.675e-01,1.929e-02
9.681e-01,1.543e-02
9.688e-01,7.717e-03
9.694e-01,3.473e-02
9.700e-01,4.630e-02
9.707e-01,6.174e-02
9.713e-01,6.946e-02
9.719e-01,7.331e-02
9.726e-01,1.273e-01
9.732e-01,1.543e-01
9.738e-01,2.122e-01
9.744e-01,3.241e-01
9.751e-01,4.206e-01
9.757e-01,6.637e-01
9.763e-01,7.563e-01
9.770e-01,1.227e+00
9.776e-01,1.922e+00
9.782e-01,2.439e+00
9.789e-01,3.384e+00
9.795e-01,5.213e+00
9.801e-01,6.660e+00
9.808e-01,9.114e+00
9.814e-01,1.438e+01
9.820e-01,1.800e+01
9.827e-01,2.490e+01
9.833e-01,3.201e+01
9.839e-01,5.157e+01
9.845e-01,6.034e+01
9.852e-01,7.524e+01
9.858e-01,1.139e+02
9.864e-01,1.205e+02
9.871e-01,1.407e+02
9.877e-01,1.850e+02
9.883e-01,1.669e+02
9.890e-01,1.607e+02
9.896e-01,1.612e+02
9.902e-01,1.045e+02
9.909e-01,6.730e+01
9.915e-01,3.554e+01
9.921e-01,1.549e+01
9.927e-01,3.365e+00
9.934e-01,4.823e-01
9.940e-01,5.016e-02
9.946e-01,0.000e+00
9.953e-01,0.000e+00
9.959e-01,0.000e+00
9.965e-01,0.000e+00
9.972e-01,0.000e+00
9.978e-01,0.000e+00
9.984e-01,0.000e+00
9.991e-01,0.000e+00
9.997e-01,0.000e+00
