transmittance,probability_density
8.459e-01,0.000e+00
8.467e-01,0.000e+00
8.475e-01,0.000e+00
8.482e-01,0.000e+00
8.490e-01,0.000e+00
8.498e-01,0.000e+00
8.506e-01,0.000e+00
8.513e-01,0.000e+00
8.521e-01,0.000e+00
8.529e-01,0.000e+00
8.537e-01,0.000e+00
8.544e-01,0.000e+00
8.552e-01,0.000e+00
8.560e-01,0.000e+00
8.567e-01,0.000e+00
8.575e-01,0.000e+00
8.583e-01,0.000e+00
8.591e-01,0.000e+00
8.598e-01,0.000e+00
8.606e-01,0.000e+00
8.614e-01,0.000e+00
8.621e-01,0.000e+00
8.629e-01,0.000e+00
8.637e-01,0.000e+00
8.645e-01,0.000e+00
8.652e-01,0.000e+00
8.660e-01,0.000e+00
8.668e-01,0.000e+00
8.676e-01,0.000e+00
8.683e-01,0.000e+00
8.691e-01,0.000e+00
8.699e-01,0.000e+00
8.706e-01,0.000e+00
8.714e-01,0.000e+00
8.722e-01,0.000e+00
8.730e-01,0.000e+00
8.737e-01,0.000e+00
8.745e-01,0.000e+00
8.753e-01,0.000e+00
8.761e-01,0.000e+00
8.768e-01,0.000e+00
8.776e-01,0.000e+00
8.784e-01,0.000e+00
8.791e-01,0.000e+00
8.799e-01,0.000e+00
8.807e-01,0.000e+00
8.815e-01,0.000e+00
8.822e-01,0.000e+00
8.830e-01,0.000e+00
8.838e-01,0.000e+00
8.845e-01,0.000e+00
8.853e-01,0.000e+00
8.861e-01,0.000e+00
8.869e-01,0.000e+00
8.876e-01,0.000e+00
8.884e-01,0.000e+00
8.892e-01,0.000e+00
8.900e-01,0.000e+00
8.907e-01,0.000e+00
8.915e-01,0.000e+00
8.923e-01,0.000e+00
8.930e-01,0.000e+00
8.938e-01,0.000e+00
8.946e-01,0.000e+00
8.954e-01,0.000e+00
8.961e-01,0.000e+00
8.969e-01,0.000e+00
8.977e-01,0.000e+00
8.984e-01,0.000e+00
8.992e-01,0.000e+00
9.000e-01,0.000e+00
9.008e-01,0.000e+00
9.015e-01,0.000e+00
9.023e-01,0.000e+00
9.031e-01,0.000e+00
9.039e-01,0.000e+00
9.046e-01,0.000e+00
9.054e-01,0.000e+00
9.062e-01,0.000e+00
9.069e-01,0.000e+00
9.077e-01,0.000e+00
9.085e-01,0.000e+00
9.093e-01,0.000e+00
9.100e-01,0.000e+00
9.108e-01,0.000e+00
9.116e-01,0.000e+00
9.123e-01,0.000e+00
9.131e-01,0.000e+00
9.139e-01,0.000e+00
9.147e-01,0.000e+00
9.154e-01,0.000e+00
9.162e-01,0.000e+00
9.170e-01,0.000e+00
9.178e-01,0.000e+00
9.185e-01,0.000e+00
9.193e-01,0.000e+00
9.201e-01,0.000e+00
9.208e-01,0.000e+00
9.216e-01,0.000e+00
9.224e-01,0.000e+00
9.232e-01,0.000e+00
9.239e-01,0.000e+00
9.247e-01,0.000e+00
9.255e-01,0.000e+00
9.262e-01,0.000e+00
9.270e-01,0.000e+00
9.278e-01,0.000e+00
9.286e-01,0.000e+00
9.293e-01,0.000e+00
9.301e-01,3.152e-03
9.309e-01,0.000e+00
9.317e-01,0.000e+00
9.324e-01,0.000e+00
9.332e-01,3.152e-03
9.340e-01,3.152e-03
9.347e-01,0.000e+00
9.355e-01,0.000e+00
9.363e-01,3.152e-03
9.371e-01,3.152e-03
9.378e-01,3.152e-03
9.386e-01,0.000e+00
9.394e-01,3.152e-03
9.401e-01,9.457e-03
9.409e-01,9.457e-03
9.417e-01,9.457e-03
9.425e-01,1.261e-02
9.432e-01,2.522e-02
9.440e-01,0.000e+00
9.448e-01,1.576e-02
9.456e-01,2.207e-02
9.463e-01,2.207e-02
9.471e-01,1.576e-02
9.479e-01,2.207e-02
9.486e-01,5.359e-02
9.494e-01,4.728e-02
9.502e-01,4.728e-02
9.510e-01,8.196e-02
9.517e-01,7.250e-02
9.525e-01,6.305e-02
9.533e-01,9.772e-02
9.540e-01,9.457e-02
9.548e-01,1.734e-01
9.556e-01,2.175e-01
9.564e-01,2.333e-01
9.571e-01,2.648e-01
9.579e-01,3.152e-01
9.587e-01,4.256e-01
9.595e-01,6.525e-01
9.602e-01,6.052e-01
9.610e-01,7.503e-01
9.618e-01,9.898e-01
9.625e-01,1.141e+00
9.633e-01,1.469e+00
9.641e-01,1.409e+00
9.649e-01,2.049e+00
9.656e-01,2.645e+00
9.664e-01,2.834e+00
9.672e-01,3.991e+00
9.680e-01,4.867e+00
9.687e-01,6.223e+00
9.695e-01,6.428e+00
9.703e-01,9.116e+00
9.710e-01,1.092e+01
9.718e-01,1.195e+01
9.726e-01,1.576e+01
9.734e-01,1.946e+01
9.741e-01,2.444e+01
9.749e-01,2.522e+01
9.757e-01,3.427e+01
9.764e-01,4.086e+01
9.772e-01,4.874e+01
9.780e-01,4.992e+01
9.788e-01,6.373e+01
9.795e-01,7.330e+01
9.803e-01,7.154e+01
9.811e-01,8.947e+01
9.819e-01,9.607e+01
9.826e-01,9.939e+01
9.834e-01,8.655e+01
9.842e-01,9.596e+01
9.849e-01,8.578e+01
9.857e-01,6.371e+01
9.865e-01,5.756e+01
9.873e-01,4.076e+01
9.880e-01,2.338e+01
9.888e-01,1.094e+01
9.896e-01,5.523e+00
9.903e-01,1.702e+00
9.911e-01,3.972e-01
9.919e-01,3.152e-02
9.927e-01,9.457e-03
9.934e-01,0.000e+00
9.942e-01,0.000e+00
9.950e-01,0.000e+00
9.958e-01,0.000e+00
9.965e-01,0.000e+00
9.973e-01,0.000e+00
9.981e-01,0.000e+00
9.988e-01,0.000e+00
9.996e-01,0.000e+00
