transmittance,probability_density
8.604e-01,0.000e+00
8.611e-01,0.000e+00
8.618e-01,0.000e+00
8.625e-01,0.000e+00
8.632e-01,0.000e+00
8.639e-01,0.000e+00
8.646e-01,0.000e+00
8.653e-01,0.000e+00
8.660e-01,0.000e+00
8.667e-01,0.000e+00
8.674e-01,0.000e+00
8.681e-01,0.000e+00
8.688e-01,0.000e+00
8.695e-01,0.000e+00
8.702e-01,0.000e+00
8.709e-01,0.000e+00
8.716e-01,0.000e+00
8.723e-01,0.000e+00
8.730e-01,0.000e+00
8.737e-01,0.000e+00
8.744e-01,0.000e+00
8.751e-01,0.000e+00
8.758e-01,0.000e+00
8.765e-01,0.000e+00
8.772e-01,0.000e+00
8.779e-01,0.000e+00
8.786e-01,0.000e+00
8.793e-01,0.000e+00
8.800e-01,0.000e+00
8.807e-01,0.000e+00
8.814e-01,0.000e+00
8.821e-01,0.000e+00
8.828e-01,0.000e+00
8.835e-01,0.000e+00
8.842e-01,0.000e+00
8.849e-01,0.000e+00
8.856e-01,0.000e+00
8.863e-01,0.000e+00
8.870e-01,0.000e+00
8.877e-01,0.000e+00
8.884e-01,0.000e+00
8.891e-01,0.000e+00
8.898e-01,0.000e+00
8.905e-01,0.000e+00
8.912e-01,0.000e+00
8.919e-01,0.000e+00
8.926e-01,0.000e+00
8.933e-01,0.000e+00
8.940e-01,0.000e+00
8.947e-01,0.000e+00
8.954e-01,0.000e+00
8.961e-01,0.000e+00
8.968e-01,0.000e+00
8.975e-01,0.000e+00
8.982e-01,0.000e+00
8.989e-01,0.000e+00
8.996e-01,0.000e+00
9.003e-01,0.000e+00
9.010e-01,0.000e+00
9.017e-01,0.000e+00
9.024e-01,0.000e+00
9.031e-01,0.000e+00
9.038e-01,0.000e+00
9.045e-01,0.000e+00
9.052e-01,0.000e+00
9.059e-01,0.000e+00
9.066e-01,0.000e+00
9.073e-01,0.000e+00
9.080e-01,0.000e+00
9.087e-01,0.000e+00
9.094e-01,0.000e+00
9.101e-01,0.000e+00
9.108e-01,0.000e+00
9.115e-01,0.000e+00
9.122e-01,0.000e+00
9.129e-01,0.000e+00
9.136e-01,0.000e+00
9.143e-01,0.000e+00
9.150e-01,0.000e+00
9.157e-01,0.000e+00
9.164e-01,0.000e+00
9.171e-01,0.000e+00
9.178e-01,0.000e+00
9.185e-01,0.000e+00
9.192e-01,0.000e+00
9.199e-01,0.000e+00
9.206e-01,0.000e+00
9.213e-01,0.000e+00
9.220e-01,0.000e+00
9.227e-01,0.000e+00
9.234e-01,0.000e+00
9.241e-01,0.000e+00
9.248e-01,0.000e+00
9.255e-01,0.000e+00
9.262e-01,0.000e+00
9.269e-01,0.000e+00
9.276e-01,0.000e+00
9.283e-01,0.000e+00
9.290e-01,0.000e+00
9.297e-01,0.000e+00
9.304e-01,0.000e+00
9.311e-01,0.000e+00
9.318e-01,0.000e+00
9.325e-01,0.000e+00
9.332e-01,0.000e+00
9.339e-01,0.000e+00
9.346e-01,0.000e+00
9.353e-01,0.000e+00
9.360e-01,0.000e+00
9.367e-01,0.000e+00
9.374e-01,0.000e+00
9.381e-01,0.000e+00
9.388e-01,0.000e+00
9.395e-01,0.000e+00
9.402e-01,0.000e+00
9.409e-01,0.000e+00
9.416e-01,0.000e+00
9.423e-01,0.000e+00
9.430e-01,0.000e+00
9.437e-01,0.000e+00
9.444e-01,0.000e+00
9.451e-01,0.000e+00
9.458e-01,3.480e-03
9.465e-01,0.000e+00
9.472e-01,3.480e-03
9.479e-01,3.480e-03
9.486e-01,0.000e+00
9.493e-01,3.480e-03
9.500e-01,6.960e-03
9.507e-01,3.480e-03
9.514e-01,1.044e-02
9.521e-01,1.392e-02
9.528e-01,3.480e-03
9.535e-01,2.436e-02
9.542e-01,1.740e-02
9.549e-01,6.960e-03
9.556e-01,1.392e-02
9.563e-01,2.436e-02
9.570e-01,1.740e-02
9.577e-01,5.220e-02
9.584e-01,4.176e-02
9.591e-01,6.264e-02
9.598e-01,8.004e-02
9.605e-01,9.048e-02
9.612e-01,8.700e-02
9.619e-01,1.079e-01
9.626e-01,1.288e-01
9.633e-01,1.914e-01
9.640e-01,2.680e-01
9.647e-01,3.236e-01
9.654e-01,3.758e-01
9.661e-01,5.116e-01
9.668e-01,6.890e-01
9.675e-01,8.526e-01
9.682e-01,1.030e+00
9.689e-01,1.375e+00
9.696e-01,1.559e+00
9.703e-01,1.984e+00
9.710e-01,2.742e+00
9.717e-01,3.289e+00
9.724e-01,4.065e+00
9.731e-01,5.377e+00
9.738e-01,6.765e+00
9.745e-01,8.634e+00
9.752e-01,1.121e+01
9.759e-01,1.433e+01
9.766e-01,1.695e+01
9.773e-01,2.132e+01
9.780e-01,2.705e+01
9.787e-01,3.344e+01
9.794e-01,4.158e+01
9.801e-01,5.037e+01
9.808e-01,6.039e+01
9.815e-01,7.106e+01
9.822e-01,8.338e+01
9.829e-01,9.503e+01
9.836e-01,1.062e+02
9.843e-01,1.159e+02
9.850e-01,1.196e+02
9.857e-01,1.186e+02
9.864e-01,1.112e+02
9.871e-01,9.756e+01
9.878e-01,7.737e+01
9.885e-01,5.598e+01
9.892e-01,3.330e+01
9.899e-01,1.695e+01
9.906e-01,7.381e+00
9.913e-01,2.133e+00
9.920e-01,4.524e-01
9.927e-01,4.872e-02
9.934e-01,3.480e-03
9.941e-01,0.000e+00
9.948e-01,0.000e+00
9.955e-01,0.000e+00
9.962e-01,0.000e+00
9.969e-01,0.000e+00
9.976e-01,0.000e+00
9.983e-01,0.000e+00
9.990e-01,0.000e+00
9.997e-01,0.000e+00
