transmittance,probability_density
8.612e-01,0.000e+00
8.619e-01,0.000e+00
8.626e-01,0.000e+00
8.633e-01,0.000e+00
8.639e-01,0.000e+00
8.646e-01,0.000e+00
8.653e-01,0.000e+00
8.660e-01,0.000e+00
8.667e-01,0.000e+00
8.674e-01,0.000e+00
8.681e-01,0.000e+00
8.688e-01,0.000e+00
8.695e-01,0.000e+00
8.702e-01,0.000e+00
8.709e-01,0.000e+00
8.716e-01,0.000e+00
8.723e-01,0.000e+00
8.730e-01,0.000e+00
8.737e-01,0.000e+00
8.744e-01,0.000e+00
8.751e-01,0.000e+00
8.758e-01,0.000e+00
8.765e-01,0.000e+00
8.772e-01,0.000e+00
8.779e-01,0.000e+00
8.786e-01,0.000e+00
8.793e-01,0.000e+00
8.800e-01,0.000e+00
8.807e-01,0.000e+00
8.813e-01,0.000e+00
8.820e-01,0.000e+00
8.827e-01,0.000e+00
8.834e-01,0.000e+00
8.841e-01,0.000e+00
8.848e-01,0.000e+00
8.855e-01,0.000e+00
8.862e-01,0.000e+00
8.869e-01,0.000e+00
8.876e-01,0.000e+00
8.883e-01,0.000e+00
8.890e-01,0.000e+00
8.897e-01,0.000e+00
8.904e-01,0.000e+00
8.911e-01,0.000e+00
8.918e-01,0.000e+00
8.925e-01,0.000e+00
8.932e-01,0.000e+00
8.939e-01,0.000e+00
8.946e-01,0.000e+00
8.953e-01,0.000e+00
8.960e-01,0.000e+00
8.967e-01,0.000e+00
8.974e-01,0.000e+00
8.980e-01,0.000e+00
8.987e-01,0.000e+00
8.994e-01,0.000e+00
9.001e-01,0.000e+00
9.008e-01,0.000e+00
9.015e-01,0.000e+00
9.022e-01,0.000e+00
9.029e-01,0.000e+00
9.036e-01,0.000e+00
9.043e-01,0.000e+00
9.050e-01,0.000e+00
9.057e-01,0.000e+00
9.064e-01,0.000e+00
9.071e-01,0.000e+00
9.078e-01,0.000e+00
9.085e-01,0.000e+00
9.092e-01,0.000e+00
9.099e-01,0.000e+00
9.106e-01,0.000e+00
9.113e-01,0.000e+00
9.120e-01,0.000e+00
9.127e-01,0.000e+00
9.134e-01,0.000e+00
9.141e-01,0.000e+00
9.148e-01,0.000e+00
9.154e-01,0.000e+00
9.161e-01,0.000e+00
9.168e-01,0.000e+00
9.175e-01,0.000e+00
9.182e-01,0.000e+00
9.189e-01,0.000e+00
9.196e-01,0.000e+00
9.203e-01,0.000e+00
9.210e-01,0.000e+00
9.217e-01,0.000e+00
9.224e-01,0.000e+00
9.231e-01,0.000e+00
9.238e-01,0.000e+00
9.245e-01,0.000e+00
9.252e-01,0.000e+00
9.259e-01,0.000e+00
9.266e-01,0.000e+00
9.273e-01,0.000e+00
9.280e-01,0.000e+00
9.287e-01,0.000e+00
9.294e-01,0.000e+00
9.301e-01,0.000e+00
9.308e-01,0.000e+00
9.315e-01,0.000e+00
9.321e-01,0.000e+00
9.328e-01,0.000e+00
9.335e-01,0.000e+00
9.342e-01,0.000e+00
9.349e-01,0.000e+00
9.356e-01,0.000e+00
9.363e-01,0.000e+00
9.370e-01,0.000e+00
9.377e-01,0.000e+00
9.384e-01,0.000e+00
9.391e-01,0.000e+00
9.398e-01,0.000e+00
9.405e-01,0.000e+00
9.412e-01,0.000e+00
9.419e-01,0.000e+00
9.426e-01,0.000e+00
9.433e-01,0.000e+00
9.440e-01,0.000e+00
9.447e-01,0.000e+00
9.454e-01,0.000e+00
9.461e-01,0.000e+00
9.468e-01,1.437e-02
9.475e-01,0.000e+00
9.482e-01,0.000e+00
9.489e-01,0.000e+00
9.495e-01,0.000e+00
9.502e-01,0.000e+00
9.509e-01,0.000e+00
9.516e-01,0.000e+00
9.523e-01,1.437e-02
9.530e-01,0.000e+00
9.537e-01,0.000e+00
9.544e-01,0.000e+00
9.551e-01,2.874e-02
9.558e-01,8.622e-02
9.565e-01,1.437e-02
9.572e-01,1.437e-02
9.579e-01,4.311e-02
9.586e-01,7.185e-02
9.593e-01,8.622e-02
9.600e-01,5.748e-02
9.607e-01,1.150e-01
9.614e-01,1.868e-01
9.621e-01,1.724e-01
9.628e-01,8.622e-02
9.635e-01,3.305e-01
9.642e-01,3.161e-01
9.649e-01,3.880e-01
9.656e-01,5.317e-01
9.662e-01,4.742e-01
9.669e-01,8.047e-01
9.676e-01,1.035e+00
9.683e-01,1.178e+00
9.690e-01,1.423e+00
9.697e-01,1.854e+00
9.704e-01,2.055e+00
9.711e-01,3.046e+00
9.718e-01,4.052e+00
9.725e-01,5.029e+00
9.732e-01,6.007e+00
9.739e-01,7.918e+00
9.746e-01,9.714e+00
9.753e-01,1.224e+01
9.760e-01,1.598e+01
9.767e-01,2.117e+01
9.774e-01,2.525e+01
9.781e-01,3.072e+01
9.788e-01,3.969e+01
9.795e-01,4.712e+01
9.802e-01,5.736e+01
9.809e-01,6.640e+01
9.816e-01,7.928e+01
9.823e-01,9.326e+01
9.830e-01,8.768e+01
9.836e-01,1.143e+02
9.843e-01,1.199e+02
9.850e-01,1.220e+02
9.857e-01,1.154e+02
9.864e-01,1.059e+02
9.871e-01,8.682e+01
9.878e-01,6.532e+01
9.885e-01,4.387e+01
9.892e-01,2.405e+01
9.899e-01,1.150e+01
9.906e-01,3.578e+00
9.913e-01,8.622e-01
9.920e-01,1.581e-01
9.927e-01,2.874e-02
9.934e-01,0.000e+00
9.941e-01,0.000e+00
9.948e-01,0.000e+00
9.955e-01,0.000e+00
9.962e-01,0.000e+00
9.969e-01,0.000e+00
9.976e-01,0.000e+00
9.983e-01,0.000e+00
9.990e-01,0.000e+00
9.997e-01,0.000e+00
