transmittance,probability_density
8.787e-01,0.000e+00
8.793e-01,0.000e+00
8.799e-01,0.000e+00
8.805e-01,0.000e+00
8.811e-01,0.000e+00
8.817e-01,0.000e+00
8.823e-01,0.000e+00
8.829e-01,0.000e+00
8.835e-01,0.000e+00
8.841e-01,0.000e+00
8.847e-01,0.000e+00
8.854e-01,0.000e+00
8.860e-01,0.000e+00
8.866e-01,0.000e+00
8.872e-01,0.000e+00
8.878e-01,0.000e+00
8.884e-01,0.000e+00
8.890e-01,0.000e+00
8.896e-01,0.000e+00
8.902e-01,0.000e+00
8.908e-01,0.000e+00
8.914e-01,0.000e+00
8.920e-01,0.000e+00
8.927e-01,0.000e+00
8.933e-01,0.000e+00
8.939e-01,0.000e+00
8.945e-01,0.000e+00
8.951e-01,0.000e+00
8.957e-01,0.000e+00
8.963e-01,0.000e+00
8.969e-01,0.000e+00
8.975e-01,0.000e+00
8.981e-01,0.000e+00
8.987e-01,0.000e+00
8.993e-01,0.000e+00
9.000e-01,0.000e+00
9.006e-01,0.000e+00
9.012e-01,0.000e+00
9.018e-01,0.000e+00
9.024e-01,0.000e+00
9.030e-01,0.000e+00
9.036e-01,0.000e+00
9.042e-01,0.000e+00
9.048e-01,0.000e+00
9.054e-01,0.000e+00
9.060e-01,0.000e+00
9.066e-01,0.000e+00
9.073e-01,0.000e+00
9.079e-01,0.000e+00
9.085e-01,0.000e+00
9.091e-01,0.000e+00
9.097e-01,0.000e+00
9.103e-01,0.000e+00
9.109e-01,0.000e+00
9.115e-01,0.000e+00
9.121e-01,0.000e+00
9.127e-01,0.000e+00
9.133e-01,0.000e+00
9.139e-01,0.000e+00
9.146e-01,0.000e+00
9.152e-01,0.000e+00
9.158e-01,0.000e+00
9.164e-01,0.000e+00
9.170e-01,0.000e+00
9.176e-01,0.000e+00
9.182e-01,0.000e+00
9.188e-01,0.000e+00
9.194e-01,0.000e+00
9.200e-01,0.000e+00
9.206e-01,0.000e+00
9.212e-01,0.000e+00
9.218e-01,0.000e+00
9.225e-01,0.000e+00
9.231e-01,0.000e+00
9.237e-01,0.000e+00
9.243e-01,0.000e+00
9.249e-01,0.000e+00
9.255e-01,0.000e+00
9.261e-01,0.000e+00
9.267e-01,0.000e+00
9.273e-01,0.000e+00
9.279e-01,0.000e+00
9.285e-01,0.000e+00
9.291e-01,0.000e+00
9.298e-01,0.000e+00
9.304e-01,0.000e+00
9.310e-01,0.000e+00
9.316e-01,0.000e+00
9.322e-01,0.000e+00
9.328e-01,0.000e+00
9.334e-01,0.000e+00
9.340e-01,0.000e+00
9.346e-01,0.000e+00
9.352e-01,0.000e+00
9.358e-01,0.000e+00
9.364e-01,0.000e+00
9.371e-01,0.000e+00
9.377e-01,0.000e+00
9.383e-01,0.000e+00
9.389e-01,0.000e+00
9.395e-01,0.000e+00
9.401e-01,0.000e+00
9.407e-01,0.000e+00
9.413e-01,0.000e+00
9.419e-01,0.000e+00
9.425e-01,0.000e+00
9.431e-01,0.000e+00
9.437e-01,0.000e+00
9.444e-01,0.000e+00
9.450e-01,0.000e+00
9.456e-01,0.000e+00
9.462e-01,0.000e+00
9.468e-01,0.000e+00
9.474e-01,0.000e+00
9.480e-01,0.000e+00
9.486e-01,0.000e+00
9.492e-01,0.000e+00
9.498e-01,0.000e+00
9.504e-01,0.000e+00
9.510e-01,0.000e+00
9.516e-01,0.000e+00
9.523e-01,0.000e+00
9.529e-01,0.000e+00
9.535e-01,0.000e+00
9.541e-01,0.000e+00
9.547e-01,0.000e+00
9.553e-01,0.000e+00
9.559e-01,0.000e+00
9.565e-01,0.000e+00
9.571e-01,0.000e+00
9.577e-01,0.000e+00
9.583e-01,0.000e+00
9.589e-01,0.000e+00
9.596e-01,0.000e+00
9.602e-01,0.000e+00
9.608e-01,0.000e+00
9.614e-01,0.000e+00
9.620e-01,0.000e+00
9.626e-01,0.000e+00
9.632e-01,0.000e+00
9.638e-01,0.000e+00
9.644e-01,0.000e+00
9.650e-01,0.000e+00
9.656e-01,0.000e+00
9.662e-01,4.003e-03
9.669e-01,0.000e+00
9.675e-01,0.000e+00
9.681e-01,0.000e+00
9.687e-01,0.000e+00
9.693e-01,0.000e+00
9.699e-01,4.003e-03
9.705e-01,0.000e+00
9.711e-01,4.003e-03
9.717e-01,1.201e-02
9.723e-01,4.003e-03
9.729e-01,1.201e-02
9.735e-01,1.601e-02
9.742e-01,2.402e-02
9.748e-01,5.204e-02
9.754e-01,8.006e-02
9.760e-01,1.081e-01
9.766e-01,1.241e-01
9.772e-01,1.801e-01
9.778e-01,3.563e-01
9.784e-01,4.443e-01
9.790e-01,7.005e-01
9.796e-01,9.287e-01
9.802e-01,1.573e+00
9.808e-01,2.318e+00
9.815e-01,3.522e+00
9.821e-01,4.843e+00
9.827e-01,7.934e+00
9.833e-01,1.132e+01
9.839e-01,1.643e+01
9.845e-01,2.459e+01
9.851e-01,4.168e+01
9.857e-01,5.318e+01
9.863e-01,7.314e+01
9.869e-01,9.825e+01
9.875e-01,1.285e+02
9.881e-01,1.587e+02
9.887e-01,1.867e+02
9.894e-01,2.021e+02
9.900e-01,2.001e+02
9.906e-01,1.730e+02
9.912e-01,1.281e+02
9.918e-01,7.664e+01
9.924e-01,3.813e+01
9.930e-01,8.782e+00
9.936e-01,1.585e+00
9.942e-01,1.321e-01
9.948e-01,4.003e-03
9.954e-01,0.000e+00
9.960e-01,0.000e+00
9.967e-01,0.000e+00
9.973e-01,0.000e+00
9.979e-01,0.000e+00
9.985e-01,0.000e+00
9.991e-01,0.000e+00
9.997e-01,0.000e+00
