transmittance,probability_density
1.308e-04,1.236e+01
3.925e-04,2.541e+01
6.541e-04,4.167e+01
9.157e-04,5.189e+01
1.177e-03,6.532e+01
1.439e-03,7.757e+01
1.701e-03,9.609e+01
1.962e-03,1.087e+02
2.224e-03,1.169e+02
2.486e-03,1.386e+02
2.747e-03,1.518e+02
3.009e-03,1.671e+02
3.270e-03,1.817e+02
3.532e-03,1.968e+02
3.794e-03,2.132e+02
4.055e-03,2.174e+02
4.317e-03,2.270e+02
4.579e-03,2.257e+02
4.840e-03,2.213e+02
5.102e-03,2.088e+02
5.364e-03,1.902e+02
5.625e-03,1.664e+02
5.887e-03,1.443e+02
6.148e-03,1.230e+02
6.410e-03,1.008e+02
6.672e-03,8.220e+01
6.933e-03,6.773e+01
7.195e-03,5.109e+01
7.457e-03,4.053e+01
7.718e-03,3.096e+01
7.980e-03,2.197e+01
8.242e-03,1.661e+01
8.503e-03,1.041e+01
8.765e-03,8.878e+00
9.026e-03,7.003e+00
9.288e-03,4.707e+00
9.550e-03,3.100e+00
9.811e-03,1.492e+00
1.007e-02,1.799e+00
1.033e-02,1.186e+00
1.060e-02,6.506e-01
1.086e-02,5.740e-01
1.112e-02,3.061e-01
1.138e-02,2.296e-01
1.164e-02,2.296e-01
1.190e-02,1.531e-01
1.217e-02,7.654e-02
1.243e-02,0.000e+00
1.269e-02,3.827e-02
1.295e-02,3.827e-02
1.321e-02,0.000e+00
1.347e-02,0.000e+00
1.374e-02,3.827e-02
1.400e-02,0.000e+00
1.426e-02,0.000e+00
1.452e-02,0.000e+00
1.478e-02,0.000e+00
1.504e-02,0.000e+00
1.531e-02,0.000e+00
1.557e-02,0.000e+00
1.583e-02,0.000e+00
1.609e-02,0.000e+00
1.635e-02,0.000e+00
1.661e-02,0.000e+00
1.688e-02,0.000e+00
1.714e-02,0.000e+00
1.740e-02,0.000e+00
1.766e-02,0.000e+00
1.792e-02,0.000e+00
1.818e-02,0.000e+00
1.845e-02,0.000e+00
1.871e-02,0.000e+00
1.897e-02,0.000e+00
1.923e-02,0.000e+00
1.949e-02,0.000e+00
1.975e-02,0.000e+00
2.002e-02,0.000e+00
2.028e-02,0.000e+00
2.054e-02,0.000e+00
2.080e-02,0.000e+00
2.106e-02,0.000e+00
2.132e-02,0.000e+00
2.158e-02,0.000e+00
2.185e-02,0.000e+00
2.211e-02,0.000e+00
2.237e-02,0.000e+00
2.263e-02,0.000e+00
2.289e-02,0.000e+00
2.315e-02,0.000e+00
2.342e-02,0.000e+00
2.368e-02,0.000e+00
2.394e-02,0.000e+00
2.420e-02,0.000e+00
2.446e-02,0.000e+00
2.472e-02,0.000e+00
2.499e-02,0.000e+00
2.525e-02,0.000e+00
2.551e-02,0.000e+00
2.577e-02,0.000e+00
2.603e-02,0.000e+00
2.629e-02,0.000e+00
2.656e-02,0.000e+00
2.682e-02,0.000e+00
2.708e-02,0.000e+00
2.734e-02,0.000e+00
2.760e-02,0.000e+00
2.786e-02,0.000e+00
2.813e-02,0.000e+00
2.839e-02,0.000e+00
2.865e-02,0.000e+00
2.891e-02,0.000e+00
2.917e-02,0.000e+00
2.943e-02,0.000e+00
2.970e-02,0.000e+00
2.996e-02,0.000e+00
3.022e-02,0.000e+00
3.048e-02,0.000e+00
3.074e-02,0.000e+00
3.100e-02,0.000e+00
3.127e-02,0.000e+00
3.153e-02,0.000e+00
3.179e-02,0.000e+00
3.205e-02,0.000e+00
3.231e-02,0.000e+00
3.257e-02,0.000e+00
3.284e-02,0.000e+00
3.310e-02,0.000e+00
3.336e-02,0.000e+00
3.362e-02,0.000e+00
3.388e-02,0.000e+00
3.414e-02,0.000e+00
3.441e-02,0.000e+00
3.467e-02,0.000e+00
3.493e-02,0.000e+00
3.519e-02,0.000e+00
3.545e-02,0.000e+00
3.571e-02,0.000e+00
3.597e-02,0.000e+00
3.624e-02,0.000e+00
3.650e-02,0.000e+00
3.676e-02,0.000e+00
3.702e-02,0.000e+00
3.728e-02,0.000e+00
3.754e-02,0.000e+00
3.781e-02,0.000e+00
3.807e-02,0.000e+00
3.833e-02,0.000e+00
3.859e-02,0.000e+00
3.885e-02,0.000e+00
3.911e-02,0.000e+00
3.938e-02,0.000e+00
3.964e-02,0.000e+00
3.990e-02,0.000e+00
4.016e-02,0.000e+00
4.042e-02,0.000e+00
4.068e-02,0.000e+00
4.095e-02,0.000e+00
4.121e-02,0.000e+00
4.147e-02,0.000e+00
4.173e-02,0.000e+00
4.199e-02,0.000e+00
4.225e-02,0.000e+00
4.252e-02,0.000e+00
4.278e-02,0.000e+00
4.304e-02,0.000e+00
4.330e-02,0.000e+00
4.356e-02,0.000e+00
4.382e-02,0.000e+00
4.409e-02,0.000e+00
4.435e-02,0.000e+00
4.461e-02,0.000e+00
4.487e-02,0.000e+00
4.513e-02,0.000e+00
4.539e-02,0.000e+00
4.566e-02,0.000e+00
4.592e-02,0.000e+00
4.618e-02,0.000e+00
4.644e-02,0.000e+00
4.670e-02,0.000e+00
4.696e-02,0.000e+00
4.723e-02,0.000e+00
4.749e-02,0.000e+00
4.775e-02,0.000e+00
4.801e-02,0.000e+00
4.827e-02,0.000e+00
4.853e-02,0.000e+00
4.879e-02,0.000e+00
4.906e-02,0.000e+00
4.932e-02,0.000e+00
4.958e-02,0.000e+00
4.984e-02,0.000e+00
5.010e-02,0.000e+00
5.036e-02,0.000e+00
5.063e-02,0.000e+00
5.089e-02,0.000e+00
5.115e-02,0.000e+00
5.141e-02,0.000e+00
5.167e-02,0.000e+00
5.193e-02,0.000e+00
5.220e-02,0.000e+00
