transmittance,probability_density
1.693e-03,0.000e+00
5.080e-03,0.000e+00
8.466e-03,0.000e+00
1.185e-02,0.000e+00
1.524e-02,0.000e+00
1.862e-02,1.770e-03
2.201e-02,0.000e+00
2.540e-02,8.848e-04
2.878e-02,1.770e-03
3.217e-02,5.309e-03
3.556e-02,5.309e-03
3.894e-02,1.327e-02
4.233e-02,9.732e-03
4.572e-02,2.477e-02
4.910e-02,2.654e-02
5.249e-02,3.893e-02
5.587e-02,5.662e-02
5.926e-02,7.255e-02
6.265e-02,9.644e-02
6.603e-02,1.044e-01
6.942e-02,1.398e-01
7.281e-02,1.973e-01
7.619e-02,1.946e-01
7.958e-02,2.407e-01
8.297e-02,3.070e-01
8.635e-02,3.592e-01
8.974e-02,4.282e-01
9.312e-02,4.964e-01
9.651e-02,5.946e-01
9.990e-02,7.069e-01
1.033e-01,7.600e-01
1.067e-01,8.343e-01
1.101e-01,9.962e-01
1.134e-01,1.033e+00
1.168e-01,1.268e+00
1.202e-01,1.339e+00
1.236e-01,1.446e+00
1.270e-01,1.714e+00
1.304e-01,1.782e+00
1.338e-01,1.902e+00
1.371e-01,2.080e+00
1.405e-01,2.330e+00
1.439e-01,2.561e+00
1.473e-01,2.488e+00
1.507e-01,2.839e+00
1.541e-01,3.015e+00
1.575e-01,3.196e+00
1.609e-01,3.359e+00
1.642e-01,3.523e+00
1.676e-01,3.720e+00
1.710e-01,3.794e+00
1.744e-01,3.803e+00
1.778e-01,4.222e+00
1.812e-01,4.322e+00
1.846e-01,4.527e+00
1.879e-01,4.561e+00
1.913e-01,4.693e+00
1.947e-01,4.784e+00
1.981e-01,4.779e+00
2.015e-01,5.164e+00
2.049e-01,5.129e+00
2.083e-01,5.157e+00
2.116e-01,5.337e+00
2.150e-01,5.363e+00
2.184e-01,5.314e+00
2.218e-01,5.249e+00
2.252e-01,5.455e+00
2.286e-01,5.392e+00
2.320e-01,5.310e+00
2.354e-01,5.432e+00
2.387e-01,5.397e+00
2.421e-01,5.354e+00
2.455e-01,5.298e+00
2.489e-01,5.194e+00
2.523e-01,5.293e+00
2.557e-01,5.083e+00
2.591e-01,5.080e+00
2.624e-01,4.965e+00
2.658e-01,4.883e+00
2.692e-01,4.839e+00
2.726e-01,4.543e+00
2.760e-01,4.521e+00
2.794e-01,4.550e+00
2.828e-01,4.439e+00
2.861e-01,4.219e+00
2.895e-01,4.160e+00
2.929e-01,3.971e+00
2.963e-01,3.648e+00
2.997e-01,3.669e+00
3.031e-01,3.440e+00
3.065e-01,3.369e+00
3.099e-01,3.255e+00
3.132e-01,3.173e+00
3.166e-01,3.060e+00
3.200e-01,2.946e+00
3.234e-01,2.659e+00
3.268e-01,2.684e+00
3.302e-01,2.525e+00
3.336e-01,2.363e+00
3.369e-01,2.234e+00
3.403e-01,2.095e+00
3.437e-01,1.923e+00
3.471e-01,1.860e+00
3.505e-01,1.784e+00
3.539e-01,1.673e+00
3.573e-01,1.596e+00
3.606e-01,1.382e+00
3.640e-01,1.360e+00
3.674e-01,1.245e+00
3.708e-01,1.250e+00
3.742e-01,1.196e+00
3.776e-01,1.065e+00
3.810e-01,9.812e-01
3.844e-01,9.493e-01
3.877e-01,8.087e-01
3.911e-01,8.547e-01
3.945e-01,7.423e-01
3.979e-01,6.353e-01
4.013e-01,6.176e-01
4.047e-01,5.680e-01
4.081e-01,5.424e-01
4.114e-01,5.397e-01
4.148e-01,4.220e-01
4.182e-01,3.787e-01
4.216e-01,3.760e-01
4.250e-01,3.592e-01
4.284e-01,3.203e-01
4.318e-01,2.849e-01
4.351e-01,2.566e-01
4.385e-01,2.451e-01
4.419e-01,2.097e-01
4.453e-01,1.823e-01
4.487e-01,1.893e-01
4.521e-01,1.752e-01
4.555e-01,1.504e-01
4.589e-01,1.389e-01
4.622e-01,1.124e-01
4.656e-01,1.203e-01
4.690e-01,9.467e-02
4.724e-01,8.317e-02
4.758e-01,6.547e-02
4.792e-01,6.459e-02
4.826e-01,4.955e-02
4.859e-01,5.751e-02
4.893e-01,4.601e-02
4.927e-01,4.866e-02
4.961e-01,4.512e-02
4.995e-01,3.628e-02
5.029e-01,2.566e-02
5.063e-01,2.300e-02
5.096e-01,1.593e-02
5.130e-01,2.654e-02
5.164e-01,1.681e-02
5.198e-01,9.732e-03
5.232e-01,8.848e-03
5.266e-01,7.963e-03
5.300e-01,1.239e-02
5.334e-01,4.424e-03
5.367e-01,6.193e-03
5.401e-01,5.309e-03
5.435e-01,8.848e-03
5.469e-01,5.309e-03
5.503e-01,6.193e-03
5.537e-01,2.654e-03
5.571e-01,6.193e-03
5.604e-01,0.000e+00
5.638e-01,4.424e-03
5.672e-01,2.654e-03
5.706e-01,2.654e-03
5.740e-01,8.848e-04
5.774e-01,8.848e-04
5.808e-01,1.770e-03
5.841e-01,1.770e-03
5.875e-01,8.848e-04
5.909e-01,8.848e-04
5.943e-01,8.848e-04
5.977e-01,2.654e-03
6.011e-01,0.000e+00
6.045e-01,0.000e+00
6.078e-01,0.000e+00
6.112e-01,0.000e+00
6.146e-01,8.848e-04
6.180e-01,0.000e+00
6.214e-01,0.000e+00
6.248e-01,0.000e+00
6.282e-01,0.000e+00
6.316e-01,0.000e+00
6.349e-01,0.000e+00
6.383e-01,0.000e+00
6.417e-01,0.000e+00
6.451e-01,0.000e+00
6.485e-01,0.000e+00
6.519e-01,0.000e+00
6.553e-01,0.000e+00
6.586e-01,0.000e+00
6.620e-01,0.000e+00
6.654e-01,0.000e+00
6.688e-01,0.000e+00
6.722e-01,0.000e+00
6.756e-01,0.000e+00
