transmittance,probability_density
4.367e-05,3.430e-02
1.310e-04,1.372e-01
2.184e-04,3.773e-01
3.057e-04,8.919e-01
3.930e-04,1.818e+00
4.804e-04,3.636e+00
5.677e-04,6.072e+00
6.551e-04,9.502e+00
7.424e-04,1.547e+01
8.297e-04,2.398e+01
9.171e-04,2.950e+01
1.004e-03,4.007e+01
1.092e-03,5.077e+01
1.179e-03,6.209e+01
1.266e-03,7.561e+01
1.354e-03,9.063e+01
1.441e-03,1.057e+02
1.528e-03,1.271e+02
1.616e-03,1.353e+02
1.703e-03,1.543e+02
1.790e-03,1.680e+02
1.878e-03,1.869e+02
1.965e-03,2.037e+02
2.052e-03,2.129e+02
2.140e-03,2.280e+02
2.227e-03,2.335e+02
2.315e-03,2.530e+02
2.402e-03,2.605e+02
2.489e-03,2.615e+02
2.577e-03,2.732e+02
2.664e-03,2.796e+02
2.751e-03,2.822e+02
2.839e-03,2.864e+02
2.926e-03,2.862e+02
3.013e-03,2.913e+02
3.101e-03,2.861e+02
3.188e-03,2.774e+02
3.275e-03,2.845e+02
3.363e-03,2.807e+02
3.450e-03,2.715e+02
3.537e-03,2.672e+02
3.625e-03,2.603e+02
3.712e-03,2.529e+02
3.799e-03,2.445e+02
3.887e-03,2.417e+02
3.974e-03,2.273e+02
4.061e-03,2.238e+02
4.149e-03,2.165e+02
4.236e-03,2.031e+02
4.323e-03,1.932e+02
4.411e-03,1.881e+02
4.498e-03,1.804e+02
4.585e-03,1.759e+02
4.673e-03,1.610e+02
4.760e-03,1.530e+02
4.847e-03,1.471e+02
4.935e-03,1.389e+02
5.022e-03,1.316e+02
5.109e-03,1.225e+02
5.197e-03,1.166e+02
5.284e-03,1.120e+02
5.371e-03,1.032e+02
5.459e-03,9.557e+01
5.546e-03,8.813e+01
5.633e-03,8.295e+01
5.721e-03,8.048e+01
5.808e-03,7.399e+01
5.895e-03,7.056e+01
5.983e-03,6.634e+01
6.070e-03,6.055e+01
6.157e-03,5.753e+01
6.245e-03,5.118e+01
6.332e-03,5.026e+01
6.419e-03,4.370e+01
6.507e-03,4.072e+01
6.594e-03,3.784e+01
6.682e-03,3.808e+01
6.769e-03,3.468e+01
6.856e-03,3.180e+01
6.944e-03,2.895e+01
7.031e-03,2.425e+01
7.118e-03,2.412e+01
7.206e-03,2.165e+01
7.293e-03,2.086e+01
7.380e-03,1.664e+01
7.468e-03,1.653e+01
7.555e-03,1.537e+01
7.642e-03,1.389e+01
7.730e-03,1.324e+01
7.817e-03,1.183e+01
7.904e-03,1.163e+01
7.992e-03,1.036e+01
8.079e-03,9.845e+00
8.166e-03,9.399e+00
8.254e-03,8.302e+00
8.341e-03,7.307e+00
8.428e-03,6.621e+00
8.516e-03,6.655e+00
8.603e-03,5.900e+00
8.690e-03,4.734e+00
8.778e-03,5.489e+00
8.865e-03,4.803e+00
8.952e-03,4.391e+00
9.040e-03,4.116e+00
9.127e-03,3.327e+00
9.214e-03,2.676e+00
9.302e-03,2.847e+00
9.389e-03,2.470e+00
9.476e-03,2.401e+00
9.564e-03,1.990e+00
9.651e-03,2.093e+00
9.738e-03,1.441e+00
9.826e-03,1.647e+00
9.913e-03,1.304e+00
1.000e-02,1.441e+00
1.009e-02,1.269e+00
1.018e-02,9.262e-01
1.026e-02,9.948e-01
1.035e-02,8.233e-01
1.044e-02,7.547e-01
1.052e-02,7.547e-01
1.061e-02,9.262e-01
1.070e-02,1.063e+00
1.079e-02,6.861e-01
1.087e-02,3.773e-01
1.096e-02,4.803e-01
1.105e-02,3.430e-01
1.114e-02,5.489e-01
1.122e-02,2.744e-01
1.131e-02,4.803e-01
1.140e-02,3.430e-01
1.149e-02,2.744e-01
1.157e-02,2.401e-01
1.166e-02,1.029e-01
1.175e-02,2.401e-01
1.183e-02,2.744e-01
1.192e-02,1.029e-01
1.201e-02,2.744e-01
1.210e-02,1.372e-01
1.218e-02,1.372e-01
1.227e-02,1.029e-01
1.236e-02,6.861e-02
1.245e-02,6.861e-02
1.253e-02,1.372e-01
1.262e-02,3.430e-02
1.271e-02,3.430e-02
1.280e-02,3.430e-02
1.288e-02,6.861e-02
1.297e-02,0.000e+00
1.306e-02,0.000e+00
1.314e-02,6.861e-02
1.323e-02,1.029e-01
1.332e-02,3.430e-02
1.341e-02,3.430e-02
1.349e-02,0.000e+00
1.358e-02,3.430e-02
1.367e-02,3.430e-02
1.376e-02,6.861e-02
1.384e-02,0.000e+00
1.393e-02,0.000e+00
1.402e-02,0.000e+00
1.411e-02,3.430e-02
1.419e-02,6.861e-02
1.428e-02,0.000e+00
1.437e-02,0.000e+00
1.445e-02,0.000e+00
1.454e-02,0.000e+00
1.463e-02,0.000e+00
1.472e-02,0.000e+00
1.480e-02,0.000e+00
1.489e-02,0.000e+00
1.498e-02,0.000e+00
1.507e-02,0.000e+00
1.515e-02,0.000e+00
1.524e-02,0.000e+00
1.533e-02,0.000e+00
1.542e-02,0.000e+00
1.550e-02,0.000e+00
1.559e-02,0.000e+00
1.568e-02,0.000e+00
1.576e-02,0.000e+00
1.585e-02,3.430e-02
1.594e-02,0.000e+00
1.603e-02,0.000e+00
1.611e-02,0.000e+00
1.620e-02,0.000e+00
1.629e-02,0.000e+00
1.638e-02,0.000e+00
1.646e-02,0.000e+00
1.655e-02,0.000e+00
1.664e-02,0.000e+00
1.673e-02,0.000e+00
1.681e-02,0.000e+00
1.690e-02,0.000e+00
1.699e-02,0.000e+00
1.707e-02,0.000e+00
1.716e-02,0.000e+00
1.725e-02,0.000e+00
1.734e-02,0.000e+00
1.742e-02,0.000e+00
