transmittance,probability_density
3.230e-01,0.000e+00
3.264e-01,0.000e+00
3.298e-01,0.000e+00
3.332e-01,0.000e+00
3.365e-01,0.000e+00
3.399e-01,0.000e+00
3.433e-01,0.000e+00
3.467e-01,0.000e+00
3.501e-01,0.000e+00
3.535e-01,8.829e-04
3.569e-01,0.000e+00
3.603e-01,0.000e+00
3.637e-01,0.000e+00
3.671e-01,0.000e+00
3.705e-01,0.000e+00
3.739e-01,0.000e+00
3.773e-01,0.000e+00
3.807e-01,8.829e-04
3.841e-01,0.000e+00
3.874e-01,8.829e-04
3.908e-01,1.766e-03
3.942e-01,0.000e+00
3.976e-01,0.000e+00
4.010e-01,0.000e+00
4.044e-01,0.000e+00
4.078e-01,0.000e+00
4.112e-01,0.000e+00
4.146e-01,8.829e-04
4.180e-01,8.829e-04
4.214e-01,0.000e+00
4.248e-01,0.000e+00
4.282e-01,0.000e+00
4.316e-01,0.000e+00
4.350e-01,8.829e-04
4.384e-01,8.829e-04
4.417e-01,8.829e-04
4.451e-01,2.649e-03
4.485e-01,2.649e-03
4.519e-01,2.649e-03
4.553e-01,1.766e-03
4.587e-01,8.829e-04
4.621e-01,2.649e-03
4.655e-01,3.531e-03
4.689e-01,1.766e-03
4.723e-01,1.766e-03
4.757e-01,8.829e-04
4.791e-01,8.829e-04
4.825e-01,1.766e-03
4.859e-01,2.649e-03
4.893e-01,2.649e-03
4.927e-01,0.000e+00
4.960e-01,4.414e-03
4.994e-01,2.649e-03
5.028e-01,4.414e-03
5.062e-01,4.414e-03
5.096e-01,5.297e-03
5.130e-01,3.531e-03
5.164e-01,7.946e-03
5.198e-01,7.946e-03
5.232e-01,7.946e-03
5.266e-01,7.946e-03
5.300e-01,1.059e-02
5.334e-01,5.297e-03
5.368e-01,1.236e-02
5.402e-01,1.324e-02
5.436e-01,1.324e-02
5.469e-01,1.413e-02
5.503e-01,2.472e-02
5.537e-01,1.677e-02
5.571e-01,2.295e-02
5.605e-01,2.649e-02
5.639e-01,2.472e-02
5.673e-01,2.119e-02
5.707e-01,2.472e-02
5.741e-01,2.737e-02
5.775e-01,3.796e-02
5.809e-01,3.796e-02
5.843e-01,4.414e-02
5.877e-01,4.326e-02
5.911e-01,6.445e-02
5.945e-01,4.238e-02
5.979e-01,4.414e-02
6.012e-01,7.769e-02
6.046e-01,6.533e-02
6.080e-01,8.829e-02
6.114e-01,7.593e-02
6.148e-01,8.652e-02
6.182e-01,8.475e-02
6.216e-01,8.211e-02
6.250e-01,1.192e-01
6.284e-01,1.271e-01
6.318e-01,1.245e-01
6.352e-01,1.289e-01
6.386e-01,1.351e-01
6.420e-01,1.624e-01
6.454e-01,1.863e-01
6.488e-01,2.128e-01
6.522e-01,2.198e-01
6.555e-01,1.995e-01
6.589e-01,2.569e-01
6.623e-01,2.410e-01
6.657e-01,2.755e-01
6.691e-01,3.311e-01
6.725e-01,3.576e-01
6.759e-01,3.735e-01
6.793e-01,3.858e-01
6.827e-01,4.300e-01
6.861e-01,4.803e-01
6.895e-01,5.315e-01
6.929e-01,5.227e-01
6.963e-01,5.995e-01
6.997e-01,5.898e-01
7.031e-01,6.489e-01
7.065e-01,7.072e-01
7.098e-01,8.211e-01
7.132e-01,8.758e-01
7.166e-01,9.049e-01
7.200e-01,9.579e-01
7.234e-01,1.074e+00
7.268e-01,1.126e+00
7.302e-01,1.271e+00
7.336e-01,1.275e+00
7.370e-01,1.438e+00
7.404e-01,1.587e+00
7.438e-01,1.603e+00
7.472e-01,1.772e+00
7.506e-01,1.891e+00
7.540e-01,1.988e+00
7.574e-01,2.168e+00
7.607e-01,2.411e+00
7.641e-01,2.469e+00
7.675e-01,2.718e+00
7.709e-01,2.870e+00
7.743e-01,3.079e+00
7.777e-01,3.313e+00
7.811e-01,3.550e+00
7.845e-01,3.733e+00
7.879e-01,3.893e+00
7.913e-01,4.263e+00
7.947e-01,4.603e+00
7.981e-01,4.844e+00
8.015e-01,5.121e+00
8.049e-01,5.388e+00
8.083e-01,5.542e+00
8.117e-01,5.821e+00
8.150e-01,6.263e+00
8.184e-01,6.484e+00
8.218e-01,6.838e+00
8.252e-01,7.371e+00
8.286e-01,7.541e+00
8.320e-01,7.776e+00
8.354e-01,8.050e+00
8.388e-01,8.039e+00
8.422e-01,8.485e+00
8.456e-01,8.604e+00
8.490e-01,8.701e+00
8.524e-01,8.796e+00
8.558e-01,8.837e+00
8.592e-01,8.838e+00
8.626e-01,8.590e+00
8.660e-01,8.600e+00
8.693e-01,8.419e+00
8.727e-01,8.013e+00
8.761e-01,7.666e+00
8.795e-01,7.192e+00
8.829e-01,6.910e+00
8.863e-01,6.293e+00
8.897e-01,5.602e+00
8.931e-01,4.707e+00
8.965e-01,4.281e+00
8.999e-01,3.542e+00
9.033e-01,2.887e+00
9.067e-01,2.289e+00
9.101e-01,1.750e+00
9.135e-01,1.306e+00
9.169e-01,8.484e-01
9.202e-01,5.536e-01
9.236e-01,3.478e-01
9.270e-01,1.695e-01
9.304e-01,8.299e-02
9.338e-01,2.913e-02
9.372e-01,1.677e-02
9.406e-01,3.531e-03
9.440e-01,0.000e+00
9.474e-01,0.000e+00
9.508e-01,0.000e+00
9.542e-01,0.000e+00
9.576e-01,0.000e+00
9.610e-01,0.000e+00
9.644e-01,0.000e+00
9.678e-01,0.000e+00
9.712e-01,0.000e+00
9.745e-01,0.000e+00
9.779e-01,0.000e+00
9.813e-01,0.000e+00
9.847e-01,0.000e+00
9.881e-01,0.000e+00
9.915e-01,0.000e+00
9.949e-01,0.000e+00
9.983e-01,0.000e+00
