transmittance,probability_density
3.475e-01,0.000e+00
3.507e-01,0.000e+00
3.540e-01,0.000e+00
3.573e-01,0.000e+00
3.605e-01,0.000e+00
3.638e-01,0.000e+00
3.671e-01,0.000e+00
3.703e-01,0.000e+00
3.736e-01,0.000e+00
3.769e-01,0.000e+00
3.802e-01,9.160e-04
3.834e-01,0.000e+00
3.867e-01,0.000e+00
3.900e-01,0.000e+00
3.932e-01,0.000e+00
3.965e-01,0.000e+00
3.998e-01,0.000e+00
4.031e-01,0.000e+00
4.063e-01,0.000e+00
4.096e-01,9.160e-04
4.129e-01,0.000e+00
4.161e-01,1.832e-03
4.194e-01,9.160e-04
4.227e-01,0.000e+00
4.260e-01,0.000e+00
4.292e-01,0.000e+00
4.325e-01,0.000e+00
4.358e-01,0.000e+00
4.390e-01,1.832e-03
4.423e-01,0.000e+00
4.456e-01,0.000e+00
4.489e-01,0.000e+00
4.521e-01,0.000e+00
4.554e-01,0.000e+00
4.587e-01,9.160e-04
4.619e-01,1.832e-03
4.652e-01,1.832e-03
4.685e-01,9.160e-04
4.717e-01,0.000e+00
4.750e-01,1.832e-03
4.783e-01,1.832e-03
4.816e-01,1.832e-03
4.848e-01,9.160e-04
4.881e-01,3.664e-03
4.914e-01,3.664e-03
4.946e-01,9.160e-04
4.979e-01,1.832e-03
5.012e-01,1.832e-03
5.045e-01,1.832e-03
5.077e-01,2.748e-03
5.110e-01,9.160e-04
5.143e-01,0.000e+00
5.175e-01,1.832e-03
5.208e-01,4.580e-03
5.241e-01,2.748e-03
5.274e-01,4.580e-03
5.306e-01,3.664e-03
5.339e-01,5.496e-03
5.372e-01,7.328e-03
5.404e-01,9.160e-04
5.437e-01,1.099e-02
5.470e-01,6.412e-03
5.503e-01,1.008e-02
5.535e-01,7.328e-03
5.568e-01,5.496e-03
5.601e-01,7.328e-03
5.633e-01,8.244e-03
5.666e-01,1.924e-02
5.699e-01,1.924e-02
5.731e-01,1.740e-02
5.764e-01,1.282e-02
5.797e-01,2.748e-02
5.830e-01,1.740e-02
5.862e-01,3.023e-02
5.895e-01,2.473e-02
5.928e-01,1.832e-02
5.960e-01,3.481e-02
5.993e-01,2.931e-02
6.026e-01,4.305e-02
6.059e-01,3.389e-02
6.091e-01,4.305e-02
6.124e-01,4.214e-02
6.157e-01,4.488e-02
6.189e-01,5.221e-02
6.222e-01,6.320e-02
6.255e-01,8.427e-02
6.288e-01,6.595e-02
6.320e-01,8.244e-02
6.353e-01,8.610e-02
6.386e-01,8.335e-02
6.418e-01,8.152e-02
6.451e-01,1.044e-01
6.484e-01,1.145e-01
6.516e-01,1.127e-01
6.549e-01,1.310e-01
6.582e-01,1.447e-01
6.615e-01,1.337e-01
6.647e-01,1.640e-01
6.680e-01,2.043e-01
6.713e-01,2.143e-01
6.745e-01,2.134e-01
6.778e-01,2.171e-01
6.811e-01,2.583e-01
6.844e-01,2.730e-01
6.876e-01,3.114e-01
6.909e-01,3.325e-01
6.942e-01,3.527e-01
6.974e-01,3.746e-01
7.007e-01,4.149e-01
7.040e-01,4.772e-01
7.073e-01,4.974e-01
7.105e-01,5.349e-01
7.138e-01,6.027e-01
7.171e-01,6.220e-01
7.203e-01,6.375e-01
7.236e-01,6.494e-01
7.269e-01,8.226e-01
7.301e-01,8.574e-01
7.334e-01,8.931e-01
7.367e-01,1.017e+00
7.400e-01,1.061e+00
7.432e-01,1.119e+00
7.465e-01,1.248e+00
7.498e-01,1.309e+00
7.530e-01,1.447e+00
7.563e-01,1.625e+00
7.596e-01,1.695e+00
7.629e-01,1.747e+00
7.661e-01,1.905e+00
7.694e-01,2.100e+00
7.727e-01,2.256e+00
7.759e-01,2.401e+00
7.792e-01,2.622e+00
7.825e-01,2.804e+00
7.858e-01,3.003e+00
7.890e-01,3.186e+00
7.923e-01,3.466e+00
7.956e-01,3.789e+00
7.988e-01,3.884e+00
8.021e-01,4.269e+00
8.054e-01,4.598e+00
8.087e-01,4.884e+00
8.119e-01,5.166e+00
8.152e-01,5.599e+00
8.185e-01,5.604e+00
8.217e-01,6.161e+00
8.250e-01,6.487e+00
8.283e-01,6.722e+00
8.315e-01,6.982e+00
8.348e-01,7.683e+00
8.381e-01,7.932e+00
8.414e-01,8.128e+00
8.446e-01,8.555e+00
8.479e-01,8.980e+00
8.512e-01,9.253e+00
8.544e-01,9.045e+00
8.577e-01,9.452e+00
8.610e-01,9.680e+00
8.643e-01,9.287e+00
8.675e-01,9.876e+00
8.708e-01,9.513e+00
8.741e-01,9.558e+00
8.773e-01,8.950e+00
8.806e-01,8.748e+00
8.839e-01,8.507e+00
8.872e-01,7.744e+00
8.904e-01,7.447e+00
8.937e-01,6.861e+00
8.970e-01,6.002e+00
9.002e-01,5.069e+00
9.035e-01,4.486e+00
9.068e-01,3.547e+00
9.101e-01,2.800e+00
9.133e-01,2.233e+00
9.166e-01,1.677e+00
9.199e-01,1.102e+00
9.231e-01,7.401e-01
9.264e-01,4.717e-01
9.297e-01,2.198e-01
9.329e-01,1.136e-01
9.362e-01,4.030e-02
9.395e-01,1.740e-02
9.428e-01,5.496e-03
9.460e-01,0.000e+00
9.493e-01,0.000e+00
9.526e-01,0.000e+00
9.558e-01,0.000e+00
9.591e-01,0.000e+00
9.624e-01,0.000e+00
9.657e-01,0.000e+00
9.689e-01,0.000e+00
9.722e-01,0.000e+00
9.755e-01,0.000e+00
9.787e-01,0.000e+00
9.820e-01,0.000e+00
9.853e-01,0.000e+00
9.886e-01,0.000e+00
9.918e-01,0.000e+00
9.951e-01,0.000e+00
9.984e-01,0.000e+00
