transmittance,probability_density
6.805e-01,0.000e+00
6.821e-01,0.000e+00
6.837e-01,0.000e+00
6.853e-01,0.000e+00
6.869e-01,0.000e+00
6.885e-01,0.000e+00
6.901e-01,0.000e+00
6.917e-01,0.000e+00
6.933e-01,0.000e+00
6.949e-01,0.000e+00
6.965e-01,0.000e+00
6.981e-01,0.000e+00
6.997e-01,0.000e+00
7.013e-01,0.000e+00
7.029e-01,0.000e+00
7.045e-01,0.000e+00
7.061e-01,0.000e+00
7.078e-01,0.000e+00
7.094e-01,0.000e+00
7.110e-01,0.000e+00
7.126e-01,0.000e+00
7.142e-01,0.000e+00
7.158e-01,0.000e+00
7.174e-01,0.000e+00
7.190e-01,0.000e+00
7.206e-01,0.000e+00
7.222e-01,0.000e+00
7.238e-01,0.000e+00
7.254e-01,0.000e+00
7.270e-01,0.000e+00
7.286e-01,0.000e+00
7.302e-01,0.000e+00
7.318e-01,0.000e+00
7.334e-01,0.000e+00
7.350e-01,0.000e+00
7.366e-01,0.000e+00
7.382e-01,0.000e+00
7.398e-01,0.000e+00
7.414e-01,0.000e+00
7.430e-01,0.000e+00
7.446e-01,0.000e+00
7.462e-01,0.000e+00
7.478e-01,1.871e-03
7.494e-01,0.000e+00
7.510e-01,0.000e+00
7.526e-01,0.000e+00
7.542e-01,0.000e+00
7.558e-01,0.000e+00
7.574e-01,0.000e+00
7.590e-01,0.000e+00
7.606e-01,0.000e+00
7.622e-01,0.000e+00
7.638e-01,0.000e+00
7.654e-01,0.000e+00
7.670e-01,0.000e+00
7.686e-01,0.000e+00
7.702e-01,0.000e+00
7.718e-01,0.000e+00
7.734e-01,0.000e+00
7.750e-01,0.000e+00
7.766e-01,0.000e+00
7.782e-01,0.000e+00
7.798e-01,0.000e+00
7.814e-01,0.000e+00
7.830e-01,0.000e+00
7.846e-01,0.000e+00
7.862e-01,0.000e+00
7.878e-01,0.000e+00
7.894e-01,0.000e+00
7.910e-01,0.000e+00
7.926e-01,0.000e+00
7.942e-01,0.000e+00
7.958e-01,0.000e+00
7.974e-01,0.000e+00
7.990e-01,0.000e+00
8.006e-01,0.000e+00
8.022e-01,0.000e+00
8.038e-01,0.000e+00
8.054e-01,1.871e-03
8.070e-01,0.000e+00
8.086e-01,0.000e+00
8.102e-01,0.000e+00
8.118e-01,0.000e+00
8.134e-01,0.000e+00
8.150e-01,0.000e+00
8.166e-01,1.871e-03
8.182e-01,0.000e+00
8.198e-01,0.000e+00
8.214e-01,0.000e+00
8.230e-01,1.871e-03
8.247e-01,0.000e+00
8.263e-01,0.000e+00
8.279e-01,0.000e+00
8.295e-01,1.871e-03
8.311e-01,0.000e+00
8.327e-01,0.000e+00
8.343e-01,3.742e-03
8.359e-01,1.871e-03
8.375e-01,3.742e-03
8.391e-01,0.000e+00
8.407e-01,1.871e-03
8.423e-01,3.742e-03
8.439e-01,1.871e-03
8.455e-01,7.484e-03
8.471e-01,1.871e-03
8.487e-01,9.355e-03
8.503e-01,7.484e-03
8.519e-01,5.613e-03
8.535e-01,5.613e-03
8.551e-01,1.123e-02
8.567e-01,1.310e-02
8.583e-01,1.310e-02
8.599e-01,2.058e-02
8.615e-01,9.355e-03
8.631e-01,1.310e-02
8.647e-01,1.684e-02
8.663e-01,2.245e-02
8.679e-01,1.497e-02
8.695e-01,3.368e-02
8.711e-01,4.303e-02
8.727e-01,4.303e-02
8.743e-01,3.742e-02
8.759e-01,4.865e-02
8.775e-01,4.677e-02
8.791e-01,1.066e-01
8.807e-01,8.606e-02
8.823e-01,1.179e-01
8.839e-01,1.029e-01
8.855e-01,1.179e-01
8.871e-01,1.609e-01
8.887e-01,1.740e-01
8.903e-01,1.628e-01
8.919e-01,2.488e-01
8.935e-01,2.937e-01
8.951e-01,3.424e-01
8.967e-01,3.499e-01
8.983e-01,4.191e-01
8.999e-01,4.977e-01
9.015e-01,6.156e-01
9.031e-01,6.249e-01
9.047e-01,8.307e-01
9.063e-01,9.617e-01
9.079e-01,1.051e+00
9.095e-01,1.306e+00
9.111e-01,1.525e+00
9.127e-01,1.804e+00
9.143e-01,2.120e+00
9.159e-01,2.621e+00
9.175e-01,2.947e+00
9.191e-01,3.297e+00
9.207e-01,4.157e+00
9.223e-01,4.973e+00
9.239e-01,5.714e+00
9.255e-01,6.837e+00
9.271e-01,7.905e+00
9.287e-01,9.235e+00
9.303e-01,1.084e+01
9.319e-01,1.273e+01
9.335e-01,1.481e+01
9.351e-01,1.729e+01
9.367e-01,2.024e+01
9.383e-01,2.258e+01
9.399e-01,2.603e+01
9.416e-01,2.839e+01
9.432e-01,3.178e+01
9.448e-01,3.443e+01
9.464e-01,3.703e+01
9.480e-01,3.909e+01
9.496e-01,4.026e+01
9.512e-01,4.012e+01
9.528e-01,3.870e+01
9.544e-01,3.485e+01
9.560e-01,3.144e+01
9.576e-01,2.589e+01
9.592e-01,2.031e+01
9.608e-01,1.490e+01
9.624e-01,9.976e+00
9.640e-01,5.529e+00
9.656e-01,3.119e+00
9.672e-01,1.366e+00
9.688e-01,4.359e-01
9.704e-01,1.403e-01
9.720e-01,2.245e-02
9.736e-01,5.613e-03
9.752e-01,0.000e+00
9.768e-01,0.000e+00
9.784e-01,0.000e+00
9.800e-01,0.000e+00
9.816e-01,0.000e+00
9.832e-01,0.000e+00
9.848e-01,0.000e+00
9.864e-01,0.000e+00
9.880e-01,0.000e+00
9.896e-01,0.000e+00
9.912e-01,0.000e+00
9.928e-01,0.000e+00
9.944e-01,0.000e+00
9.960e-01,0.000e+00
9.976e-01,0.000e+00
9.992e-01,0.000e+00
