transmittance,probability_density
6.921e-01,0.000e+00
6.937e-01,0.000e+00
6.952e-01,0.000e+00
6.968e-01,0.000e+00
6.983e-01,0.000e+00
6.999e-01,0.000e+00
7.014e-01,0.000e+00
7.029e-01,0.000e+00
7.045e-01,0.000e+00
7.060e-01,0.000e+00
7.076e-01,0.000e+00
7.091e-01,0.000e+00
7.107e-01,0.000e+00
7.122e-01,0.000e+00
7.137e-01,0.000e+00
7.153e-01,0.000e+00
7.168e-01,0.000e+00
7.184e-01,0.000e+00
7.199e-01,0.000e+00
7.215e-01,0.000e+00
7.230e-01,0.000e+00
7.245e-01,0.000e+00
7.261e-01,0.000e+00
7.276e-01,0.000e+00
7.292e-01,0.000e+00
7.307e-01,0.000e+00
7.323e-01,0.000e+00
7.338e-01,0.000e+00
7.353e-01,0.000e+00
7.369e-01,0.000e+00
7.384e-01,0.000e+00
7.400e-01,0.000e+00
7.415e-01,0.000e+00
7.431e-01,0.000e+00
7.446e-01,0.000e+00
7.461e-01,0.000e+00
7.477e-01,0.000e+00
7.492e-01,0.000e+00
7.508e-01,0.000e+00
7.523e-01,0.000e+00
7.539e-01,0.000e+00
7.554e-01,0.000e+00
7.569e-01,0.000e+00
7.585e-01,0.000e+00
7.600e-01,6.480e-03
7.616e-01,0.000e+00
7.631e-01,0.000e+00
7.647e-01,0.000e+00
7.662e-01,0.000e+00
7.678e-01,0.000e+00
7.693e-01,0.000e+00
7.708e-01,0.000e+00
7.724e-01,6.480e-03
7.739e-01,0.000e+00
7.755e-01,0.000e+00
7.770e-01,0.000e+00
7.786e-01,0.000e+00
7.801e-01,0.000e+00
7.816e-01,6.480e-03
7.832e-01,0.000e+00
7.847e-01,0.000e+00
7.863e-01,0.000e+00
7.878e-01,6.480e-03
7.894e-01,0.000e+00
7.909e-01,1.944e-02
7.924e-01,0.000e+00
7.940e-01,6.480e-03
7.955e-01,6.480e-03
7.971e-01,0.000e+00
7.986e-01,1.944e-02
8.002e-01,6.480e-03
8.017e-01,0.000e+00
8.032e-01,1.296e-02
8.048e-01,0.000e+00
8.063e-01,1.296e-02
8.079e-01,6.480e-03
8.094e-01,1.296e-02
8.110e-01,0.000e+00
8.125e-01,0.000e+00
8.140e-01,6.480e-03
8.156e-01,6.480e-03
8.171e-01,6.480e-03
8.187e-01,1.944e-02
8.202e-01,2.592e-02
8.218e-01,2.592e-02
8.233e-01,1.296e-02
8.248e-01,3.240e-02
8.264e-01,6.480e-03
8.279e-01,1.944e-02
8.295e-01,3.888e-02
8.310e-01,3.888e-02
8.326e-01,5.832e-02
8.341e-01,5.832e-02
8.357e-01,4.536e-02
8.372e-01,1.944e-02
8.387e-01,5.832e-02
8.403e-01,5.184e-02
8.418e-01,1.166e-01
8.434e-01,6.480e-02
8.449e-01,5.184e-02
8.465e-01,1.102e-01
8.480e-01,8.424e-02
8.495e-01,1.490e-01
8.511e-01,1.426e-01
8.526e-01,1.490e-01
8.542e-01,1.814e-01
8.557e-01,1.685e-01
8.573e-01,1.685e-01
8.588e-01,2.009e-01
8.603e-01,2.916e-01
8.619e-01,2.657e-01
8.634e-01,2.722e-01
8.650e-01,2.851e-01
8.665e-01,2.981e-01
8.681e-01,3.953e-01
8.696e-01,3.305e-01
8.711e-01,4.212e-01
8.727e-01,4.795e-01
8.742e-01,5.767e-01
8.758e-01,5.832e-01
8.773e-01,6.415e-01
8.789e-01,8.683e-01
8.804e-01,8.230e-01
8.819e-01,8.489e-01
8.835e-01,1.017e+00
8.850e-01,1.251e+00
8.866e-01,1.238e+00
8.881e-01,1.562e+00
8.897e-01,1.899e+00
8.912e-01,1.827e+00
8.927e-01,2.249e+00
8.943e-01,2.339e+00
8.958e-01,2.566e+00
8.974e-01,2.858e+00
8.989e-01,3.072e+00
9.005e-01,3.836e+00
9.020e-01,3.817e+00
9.036e-01,4.905e+00
9.051e-01,5.171e+00
9.066e-01,5.955e+00
9.082e-01,5.962e+00
9.097e-01,7.076e+00
9.113e-01,8.444e+00
9.128e-01,8.457e+00
9.144e-01,9.804e+00
9.159e-01,1.023e+01
9.174e-01,1.282e+01
9.190e-01,1.262e+01
9.205e-01,1.440e+01
9.221e-01,1.682e+01
9.236e-01,1.682e+01
9.252e-01,1.980e+01
9.267e-01,1.973e+01
9.282e-01,2.336e+01
9.298e-01,2.299e+01
9.313e-01,2.514e+01
9.329e-01,2.759e+01
9.344e-01,2.654e+01
9.360e-01,2.970e+01
9.375e-01,2.892e+01
9.390e-01,3.081e+01
9.406e-01,2.846e+01
9.421e-01,2.953e+01
9.437e-01,2.672e+01
9.452e-01,2.411e+01
9.468e-01,2.328e+01
9.483e-01,1.988e+01
9.498e-01,1.746e+01
9.514e-01,1.360e+01
9.529e-01,1.110e+01
9.545e-01,7.906e+00
9.560e-01,5.482e+00
9.576e-01,3.441e+00
9.591e-01,1.717e+00
9.606e-01,1.108e+00
9.622e-01,5.508e-01
9.637e-01,2.786e-01
9.653e-01,1.102e-01
9.668e-01,4.536e-02
9.684e-01,1.296e-02
9.699e-01,0.000e+00
9.715e-01,0.000e+00
9.730e-01,0.000e+00
9.745e-01,0.000e+00
9.761e-01,0.000e+00
9.776e-01,0.000e+00
9.792e-01,0.000e+00
9.807e-01,0.000e+00
9.823e-01,0.000e+00
9.838e-01,0.000e+00
9.853e-01,0.000e+00
9.869e-01,0.000e+00
9.884e-01,0.000e+00
9.900e-01,0.000e+00
9.915e-01,0.000e+00
9.931e-01,0.000e+00
9.946e-01,0.000e+00
9.961e-01,0.000e+00
9.977e-01,0.000e+00
9.992e-01,0.000e+00
