transmittance,probability_density
6.651e-01,0.000e+00
6.668e-01,0.000e+00
6.685e-01,0.000e+00
6.701e-01,0.000e+00
6.718e-01,0.000e+00
6.735e-01,0.000e+00
6.752e-01,0.000e+00
6.769e-01,0.000e+00
6.785e-01,0.000e+00
6.802e-01,0.000e+00
6.819e-01,0.000e+00
6.836e-01,0.000e+00
6.853e-01,0.000e+00
6.869e-01,0.000e+00
6.886e-01,0.000e+00
6.903e-01,0.000e+00
6.920e-01,0.000e+00
6.936e-01,0.000e+00
6.953e-01,0.000e+00
6.970e-01,0.000e+00
6.987e-01,0.000e+00
7.004e-01,0.000e+00
7.020e-01,0.000e+00
7.037e-01,0.000e+00
7.054e-01,0.000e+00
7.071e-01,0.000e+00
7.088e-01,0.000e+00
7.104e-01,0.000e+00
7.121e-01,0.000e+00
7.138e-01,0.000e+00
7.155e-01,0.000e+00
7.171e-01,0.000e+00
7.188e-01,0.000e+00
7.205e-01,0.000e+00
7.222e-01,0.000e+00
7.239e-01,0.000e+00
7.255e-01,0.000e+00
7.272e-01,0.000e+00
7.289e-01,0.000e+00
7.306e-01,1.785e-03
7.323e-01,0.000e+00
7.339e-01,0.000e+00
7.356e-01,0.000e+00
7.373e-01,0.000e+00
7.390e-01,0.000e+00
7.407e-01,0.000e+00
7.423e-01,0.000e+00
7.440e-01,0.000e+00
7.457e-01,0.000e+00
7.474e-01,0.000e+00
7.490e-01,0.000e+00
7.507e-01,0.000e+00
7.524e-01,0.000e+00
7.541e-01,0.000e+00
7.558e-01,0.000e+00
7.574e-01,0.000e+00
7.591e-01,0.000e+00
7.608e-01,0.000e+00
7.625e-01,0.000e+00
7.642e-01,0.000e+00
7.658e-01,0.000e+00
7.675e-01,0.000e+00
7.692e-01,1.785e-03
7.709e-01,0.000e+00
7.725e-01,0.000e+00
7.742e-01,0.000e+00
7.759e-01,0.000e+00
7.776e-01,0.000e+00
7.793e-01,0.000e+00
7.809e-01,0.000e+00
7.826e-01,0.000e+00
7.843e-01,0.000e+00
7.860e-01,0.000e+00
7.877e-01,0.000e+00
7.893e-01,0.000e+00
7.910e-01,0.000e+00
7.927e-01,0.000e+00
7.944e-01,0.000e+00
7.960e-01,0.000e+00
7.977e-01,0.000e+00
7.994e-01,3.570e-03
8.011e-01,0.000e+00
8.028e-01,0.000e+00
8.044e-01,1.785e-03
8.061e-01,1.785e-03
8.078e-01,0.000e+00
8.095e-01,0.000e+00
8.112e-01,0.000e+00
8.128e-01,0.000e+00
8.145e-01,1.785e-03
8.162e-01,1.785e-03
8.179e-01,3.570e-03
8.195e-01,3.570e-03
8.212e-01,3.570e-03
8.229e-01,0.000e+00
8.246e-01,3.570e-03
8.263e-01,8.924e-03
8.279e-01,3.570e-03
8.296e-01,1.785e-03
8.313e-01,7.139e-03
8.330e-01,1.071e-02
8.347e-01,3.570e-03
8.363e-01,5.355e-03
8.380e-01,8.924e-03
8.397e-01,2.320e-02
8.414e-01,7.139e-03
8.430e-01,1.428e-02
8.447e-01,8.924e-03
8.464e-01,8.924e-03
8.481e-01,1.071e-02
8.498e-01,2.320e-02
8.514e-01,1.071e-02
8.531e-01,3.570e-02
8.548e-01,3.213e-02
8.565e-01,4.105e-02
8.582e-01,3.748e-02
8.598e-01,3.213e-02
8.615e-01,5.176e-02
8.632e-01,5.533e-02
8.649e-01,5.890e-02
8.665e-01,9.460e-02
8.682e-01,9.638e-02
8.699e-01,9.281e-02
8.716e-01,1.285e-01
8.733e-01,1.499e-01
8.749e-01,1.178e-01
8.766e-01,1.589e-01
8.783e-01,1.945e-01
8.800e-01,2.053e-01
8.817e-01,2.320e-01
8.833e-01,3.320e-01
8.850e-01,3.463e-01
8.867e-01,3.820e-01
8.884e-01,4.087e-01
8.900e-01,5.265e-01
8.917e-01,5.158e-01
8.934e-01,7.014e-01
8.951e-01,7.764e-01
8.968e-01,8.906e-01
8.984e-01,9.370e-01
9.001e-01,1.239e+00
9.018e-01,1.380e+00
9.035e-01,1.760e+00
9.052e-01,1.804e+00
9.068e-01,2.172e+00
9.085e-01,2.536e+00
9.102e-01,2.957e+00
9.119e-01,3.425e+00
9.136e-01,3.973e+00
9.152e-01,4.637e+00
9.169e-01,5.451e+00
9.186e-01,6.324e+00
9.203e-01,7.475e+00
9.219e-01,8.073e+00
9.236e-01,9.768e+00
9.253e-01,1.142e+01
9.270e-01,1.324e+01
9.287e-01,1.418e+01
9.303e-01,1.722e+01
9.320e-01,1.952e+01
9.337e-01,2.206e+01
9.354e-01,2.460e+01
9.371e-01,2.530e+01
9.387e-01,2.956e+01
9.404e-01,3.127e+01
9.421e-01,3.386e+01
9.438e-01,3.548e+01
9.454e-01,3.397e+01
9.471e-01,3.613e+01
9.488e-01,3.494e+01
9.505e-01,3.195e+01
9.522e-01,2.667e+01
9.538e-01,2.495e+01
9.555e-01,2.007e+01
9.572e-01,1.497e+01
9.589e-01,1.049e+01
9.606e-01,6.270e+00
9.622e-01,3.759e+00
9.639e-01,1.960e+00
9.656e-01,7.764e-01
9.673e-01,2.302e-01
9.689e-01,7.853e-02
9.706e-01,7.139e-03
9.723e-01,5.355e-03
9.740e-01,0.000e+00
9.757e-01,0.000e+00
9.773e-01,0.000e+00
9.790e-01,0.000e+00
9.807e-01,0.000e+00
9.824e-01,0.000e+00
9.841e-01,0.000e+00
9.857e-01,0.000e+00
9.874e-01,0.000e+00
9.891e-01,0.000e+00
9.908e-01,0.000e+00
9.924e-01,0.000e+00
9.941e-01,0.000e+00
9.958e-01,0.000e+00
9.975e-01,0.000e+00
9.992e-01,0.000e+00
