transmittance,probability_density
6.959e-01,0.000e+00
6.975e-01,0.000e+00
6.990e-01,0.000e+00
7.005e-01,0.000e+00
7.020e-01,0.000e+00
7.036e-01,0.000e+00
7.051e-01,0.000e+00
7.066e-01,0.000e+00
7.081e-01,0.000e+00
7.097e-01,0.000e+00
7.112e-01,0.000e+00
7.127e-01,0.000e+00
7.142e-01,0.000e+00
7.158e-01,0.000e+00
7.173e-01,0.000e+00
7.188e-01,0.000e+00
7.203e-01,0.000e+00
7.219e-01,0.000e+00
7.234e-01,0.000e+00
7.249e-01,0.000e+00
7.264e-01,0.000e+00
7.279e-01,0.000e+00
7.295e-01,0.000e+00
7.310e-01,0.000e+00
7.325e-01,0.000e+00
7.340e-01,0.000e+00
7.356e-01,0.000e+00
7.371e-01,0.000e+00
7.386e-01,0.000e+00
7.401e-01,0.000e+00
7.417e-01,0.000e+00
7.432e-01,0.000e+00
7.447e-01,0.000e+00
7.462e-01,0.000e+00
7.478e-01,0.000e+00
7.493e-01,0.000e+00
7.508e-01,0.000e+00
7.523e-01,0.000e+00
7.539e-01,0.000e+00
7.554e-01,0.000e+00
7.569e-01,0.000e+00
7.584e-01,0.000e+00
7.600e-01,0.000e+00
7.615e-01,0.000e+00
7.630e-01,0.000e+00
7.645e-01,1.966e-03
7.661e-01,0.000e+00
7.676e-01,0.000e+00
7.691e-01,0.000e+00
7.706e-01,0.000e+00
7.721e-01,0.000e+00
7.737e-01,0.000e+00
7.752e-01,0.000e+00
7.767e-01,0.000e+00
7.782e-01,0.000e+00
7.798e-01,0.000e+00
7.813e-01,0.000e+00
7.828e-01,0.000e+00
7.843e-01,0.000e+00
7.859e-01,0.000e+00
7.874e-01,0.000e+00
7.889e-01,0.000e+00
7.904e-01,0.000e+00
7.920e-01,0.000e+00
7.935e-01,0.000e+00
7.950e-01,0.000e+00
7.965e-01,0.000e+00
7.981e-01,0.000e+00
7.996e-01,0.000e+00
8.011e-01,0.000e+00
8.026e-01,0.000e+00
8.042e-01,0.000e+00
8.057e-01,0.000e+00
8.072e-01,0.000e+00
8.087e-01,0.000e+00
8.103e-01,0.000e+00
8.118e-01,0.000e+00
8.133e-01,0.000e+00
8.148e-01,0.000e+00
8.163e-01,0.000e+00
8.179e-01,0.000e+00
8.194e-01,0.000e+00
8.209e-01,0.000e+00
8.224e-01,0.000e+00
8.240e-01,0.000e+00
8.255e-01,0.000e+00
8.270e-01,0.000e+00
8.285e-01,0.000e+00
8.301e-01,0.000e+00
8.316e-01,0.000e+00
8.331e-01,0.000e+00
8.346e-01,1.966e-03
8.362e-01,1.966e-03
8.377e-01,0.000e+00
8.392e-01,0.000e+00
8.407e-01,0.000e+00
8.423e-01,0.000e+00
8.438e-01,0.000e+00
8.453e-01,1.966e-03
8.468e-01,0.000e+00
8.484e-01,3.932e-03
8.499e-01,0.000e+00
8.514e-01,0.000e+00
8.529e-01,1.966e-03
8.544e-01,1.966e-03
8.560e-01,1.966e-03
8.575e-01,0.000e+00
8.590e-01,1.966e-03
8.605e-01,1.966e-03
8.621e-01,1.966e-03
8.636e-01,1.966e-03
8.651e-01,1.376e-02
8.666e-01,1.180e-02
8.682e-01,1.966e-03
8.697e-01,1.573e-02
8.712e-01,5.898e-03
8.727e-01,1.376e-02
8.743e-01,1.966e-02
8.758e-01,1.769e-02
8.773e-01,1.376e-02
8.788e-01,1.966e-02
8.804e-01,1.966e-02
8.819e-01,2.949e-02
8.834e-01,3.932e-02
8.849e-01,3.932e-02
8.865e-01,5.111e-02
8.880e-01,5.308e-02
8.895e-01,6.094e-02
8.910e-01,7.667e-02
8.926e-01,1.278e-01
8.941e-01,7.863e-02
8.956e-01,1.258e-01
8.971e-01,1.258e-01
8.986e-01,1.553e-01
9.002e-01,2.202e-01
9.017e-01,2.221e-01
9.032e-01,2.772e-01
9.047e-01,3.263e-01
9.063e-01,3.755e-01
9.078e-01,4.227e-01
9.093e-01,5.544e-01
9.108e-01,6.664e-01
9.124e-01,7.116e-01
9.139e-01,8.768e-01
9.154e-01,1.060e+00
9.169e-01,1.244e+00
9.185e-01,1.612e+00
9.200e-01,1.689e+00
9.215e-01,2.158e+00
9.230e-01,2.573e+00
9.246e-01,3.301e+00
9.261e-01,3.690e+00
9.276e-01,4.352e+00
9.291e-01,5.162e+00
9.307e-01,6.682e+00
9.322e-01,7.736e+00
9.337e-01,8.897e+00
9.352e-01,1.048e+01
9.368e-01,1.351e+01
9.383e-01,1.492e+01
9.398e-01,1.750e+01
9.413e-01,2.081e+01
9.428e-01,2.563e+01
9.444e-01,2.723e+01
9.459e-01,3.124e+01
9.474e-01,3.431e+01
9.489e-01,4.037e+01
9.505e-01,4.144e+01
9.520e-01,4.309e+01
9.535e-01,4.448e+01
9.550e-01,4.718e+01
9.566e-01,4.136e+01
9.581e-01,3.754e+01
9.596e-01,3.266e+01
9.611e-01,2.629e+01
9.627e-01,2.100e+01
9.642e-01,1.344e+01
9.657e-01,8.048e+00
9.672e-01,4.527e+00
9.688e-01,2.162e+00
9.703e-01,7.077e-01
9.718e-01,1.985e-01
9.733e-01,4.128e-02
9.749e-01,9.829e-03
9.764e-01,1.966e-03
9.779e-01,0.000e+00
9.794e-01,0.000e+00
9.809e-01,0.000e+00
9.825e-01,0.000e+00
9.840e-01,0.000e+00
9.855e-01,0.000e+00
9.870e-01,0.000e+00
9.886e-01,0.000e+00
9.901e-01,0.000e+00
9.916e-01,0.000e+00
9.931e-01,0.000e+00
9.947e-01,0.000e+00
9.962e-01,0.000e+00
9.977e-01,0.000e+00
9.992e-01,0.000e+00
