transmittance,probability_density
7.318e-01,0.000e+00
7.331e-01,0.000e+00
7.345e-01,0.000e+00
7.358e-01,0.000e+00
7.371e-01,0.000e+00
7.385e-01,0.000e+00
7.398e-01,0.000e+00
7.412e-01,0.000e+00
7.425e-01,0.000e+00
7.439e-01,0.000e+00
7.452e-01,0.000e+00
7.466e-01,0.000e+00
7.479e-01,0.000e+00
7.492e-01,0.000e+00
7.506e-01,0.000e+00
7.519e-01,0.000e+00
7.533e-01,0.000e+00
7.546e-01,0.000e+00
7.560e-01,0.000e+00
7.573e-01,0.000e+00
7.587e-01,0.000e+00
7.600e-01,0.000e+00
7.613e-01,0.000e+00
7.627e-01,0.000e+00
7.640e-01,0.000e+00
7.654e-01,0.000e+00
7.667e-01,0.000e+00
7.681e-01,0.000e+00
7.694e-01,0.000e+00
7.708e-01,0.000e+00
7.721e-01,0.000e+00
7.734e-01,0.000e+00
7.748e-01,0.000e+00
7.761e-01,0.000e+00
7.775e-01,0.000e+00
7.788e-01,0.000e+00
7.802e-01,0.000e+00
7.815e-01,0.000e+00
7.829e-01,0.000e+00
7.842e-01,0.000e+00
7.855e-01,0.000e+00
7.869e-01,0.000e+00
7.882e-01,0.000e+00
7.896e-01,0.000e+00
7.909e-01,0.000e+00
7.923e-01,0.000e+00
7.936e-01,0.000e+00
7.950e-01,0.000e+00
7.963e-01,0.000e+00
7.976e-01,0.000e+00
7.990e-01,0.000e+00
8.003e-01,0.000e+00
8.017e-01,0.000e+00
8.030e-01,0.000e+00
8.044e-01,2.228e-03
8.057e-01,0.000e+00
8.071e-01,0.000e+00
8.084e-01,0.000e+00
8.097e-01,0.000e+00
8.111e-01,0.000e+00
8.124e-01,0.000e+00
8.138e-01,0.000e+00
8.151e-01,0.000e+00
8.165e-01,0.000e+00
8.178e-01,0.000e+00
8.192e-01,0.000e+00
8.205e-01,0.000e+00
8.218e-01,0.000e+00
8.232e-01,0.000e+00
8.245e-01,0.000e+00
8.259e-01,0.000e+00
8.272e-01,0.000e+00
8.286e-01,0.000e+00
8.299e-01,0.000e+00
8.313e-01,0.000e+00
8.326e-01,0.000e+00
8.339e-01,0.000e+00
8.353e-01,0.000e+00
8.366e-01,0.000e+00
8.380e-01,0.000e+00
8.393e-01,0.000e+00
8.407e-01,0.000e+00
8.420e-01,0.000e+00
8.434e-01,0.000e+00
8.447e-01,0.000e+00
8.460e-01,0.000e+00
8.474e-01,0.000e+00
8.487e-01,0.000e+00
8.501e-01,0.000e+00
8.514e-01,0.000e+00
8.528e-01,0.000e+00
8.541e-01,0.000e+00
8.555e-01,0.000e+00
8.568e-01,0.000e+00
8.582e-01,0.000e+00
8.595e-01,0.000e+00
8.608e-01,0.000e+00
8.622e-01,0.000e+00
8.635e-01,0.000e+00
8.649e-01,0.000e+00
8.662e-01,0.000e+00
8.676e-01,0.000e+00
8.689e-01,0.000e+00
8.703e-01,2.228e-03
8.716e-01,0.000e+00
8.729e-01,0.000e+00
8.743e-01,0.000e+00
8.756e-01,4.457e-03
8.770e-01,0.000e+00
8.783e-01,0.000e+00
8.797e-01,0.000e+00
8.810e-01,0.000e+00
8.824e-01,2.228e-03
8.837e-01,0.000e+00
8.850e-01,4.457e-03
8.864e-01,0.000e+00
8.877e-01,6.685e-03
8.891e-01,4.457e-03
8.904e-01,2.228e-03
8.918e-01,4.457e-03
8.931e-01,8.913e-03
8.945e-01,1.114e-02
8.958e-01,8.913e-03
8.971e-01,4.457e-03
8.985e-01,1.560e-02
8.998e-01,2.451e-02
9.012e-01,2.228e-02
9.025e-01,3.788e-02
9.039e-01,3.343e-02
9.052e-01,3.343e-02
9.066e-01,5.125e-02
9.079e-01,5.348e-02
9.092e-01,8.468e-02
9.106e-01,8.913e-02
9.119e-01,7.354e-02
9.133e-01,1.025e-01
9.146e-01,1.382e-01
9.160e-01,1.827e-01
9.173e-01,2.028e-01
9.187e-01,2.629e-01
9.200e-01,2.763e-01
9.213e-01,3.989e-01
9.227e-01,3.744e-01
9.240e-01,5.571e-01
9.254e-01,6.195e-01
9.267e-01,7.821e-01
9.281e-01,1.041e+00
9.294e-01,1.012e+00
9.308e-01,1.513e+00
9.321e-01,1.716e+00
9.334e-01,2.289e+00
9.348e-01,2.520e+00
9.361e-01,3.434e+00
9.375e-01,4.060e+00
9.388e-01,4.735e+00
9.402e-01,6.277e+00
9.415e-01,7.247e+00
9.429e-01,9.765e+00
9.442e-01,1.091e+01
9.455e-01,1.418e+01
9.469e-01,1.595e+01
9.482e-01,2.068e+01
9.496e-01,2.310e+01
9.509e-01,2.725e+01
9.523e-01,3.397e+01
9.536e-01,3.682e+01
9.550e-01,4.445e+01
9.563e-01,4.728e+01
9.576e-01,5.403e+01
9.590e-01,5.338e+01
9.603e-01,5.840e+01
9.617e-01,5.298e+01
9.630e-01,4.911e+01
9.644e-01,4.610e+01
9.657e-01,3.550e+01
9.671e-01,2.882e+01
9.684e-01,1.836e+01
9.697e-01,1.225e+01
9.711e-01,5.858e+00
9.724e-01,2.964e+00
9.738e-01,9.470e-01
9.751e-01,2.785e-01
9.765e-01,5.125e-02
9.778e-01,2.006e-02
9.792e-01,0.000e+00
9.805e-01,0.000e+00
9.818e-01,0.000e+00
9.832e-01,0.000e+00
9.845e-01,0.000e+00
9.859e-01,0.000e+00
9.872e-01,0.000e+00
9.886e-01,0.000e+00
9.899e-01,0.000e+00
9.913e-01,0.000e+00
9.926e-01,0.000e+00
9.939e-01,0.000e+00
9.953e-01,0.000e+00
9.966e-01,0.000e+00
9.980e-01,0.000e+00
9.993e-01,0.000e+00
