transmittance,probability_density
6.881e-01,0.000e+00
6.897e-01,0.000e+00
6.913e-01,0.000e+00
6.928e-01,0.000e+00
6.944e-01,0.000e+00
6.960e-01,0.000e+00
6.975e-01,0.000e+00
6.991e-01,0.000e+00
7.007e-01,0.000e+00
7.022e-01,0.000e+00
7.038e-01,0.000e+00
7.053e-01,0.000e+00
7.069e-01,0.000e+00
7.085e-01,0.000e+00
7.100e-01,0.000e+00
7.116e-01,0.000e+00
7.132e-01,0.000e+00
7.147e-01,0.000e+00
7.163e-01,0.000e+00
7.178e-01,0.000e+00
7.194e-01,0.000e+00
7.210e-01,0.000e+00
7.225e-01,0.000e+00
7.241e-01,0.000e+00
7.257e-01,0.000e+00
7.272e-01,0.000e+00
7.288e-01,0.000e+00
7.304e-01,0.000e+00
7.319e-01,0.000e+00
7.335e-01,0.000e+00
7.350e-01,0.000e+00
7.366e-01,0.000e+00
7.382e-01,0.000e+00
7.397e-01,0.000e+00
7.413e-01,0.000e+00
7.429e-01,0.000e+00
7.444e-01,0.000e+00
7.460e-01,0.000e+00
7.475e-01,0.000e+00
7.491e-01,0.000e+00
7.507e-01,0.000e+00
7.522e-01,0.000e+00
7.538e-01,0.000e+00
7.554e-01,1.917e-03
7.569e-01,0.000e+00
7.585e-01,0.000e+00
7.601e-01,0.000e+00
7.616e-01,0.000e+00
7.632e-01,0.000e+00
7.647e-01,0.000e+00
7.663e-01,0.000e+00
7.679e-01,0.000e+00
7.694e-01,0.000e+00
7.710e-01,0.000e+00
7.726e-01,0.000e+00
7.741e-01,0.000e+00
7.757e-01,0.000e+00
7.772e-01,0.000e+00
7.788e-01,0.000e+00
7.804e-01,0.000e+00
7.819e-01,0.000e+00
7.835e-01,0.000e+00
7.851e-01,0.000e+00
7.866e-01,0.000e+00
7.882e-01,0.000e+00
7.898e-01,0.000e+00
7.913e-01,0.000e+00
7.929e-01,0.000e+00
7.944e-01,0.000e+00
7.960e-01,0.000e+00
7.976e-01,0.000e+00
7.991e-01,0.000e+00
8.007e-01,0.000e+00
8.023e-01,0.000e+00
8.038e-01,0.000e+00
8.054e-01,0.000e+00
8.069e-01,0.000e+00
8.085e-01,0.000e+00
8.101e-01,0.000e+00
8.116e-01,0.000e+00
8.132e-01,0.000e+00
8.148e-01,0.000e+00
8.163e-01,0.000e+00
8.179e-01,0.000e+00
8.195e-01,0.000e+00
8.210e-01,1.917e-03
8.226e-01,0.000e+00
8.241e-01,0.000e+00
8.257e-01,1.917e-03
8.273e-01,0.000e+00
8.288e-01,0.000e+00
8.304e-01,0.000e+00
8.320e-01,0.000e+00
8.335e-01,1.917e-03
8.351e-01,0.000e+00
8.366e-01,0.000e+00
8.382e-01,0.000e+00
8.398e-01,0.000e+00
8.413e-01,3.833e-03
8.429e-01,1.917e-03
8.445e-01,0.000e+00
8.460e-01,1.917e-03
8.476e-01,1.917e-03
8.492e-01,3.833e-03
8.507e-01,0.000e+00
8.523e-01,0.000e+00
8.538e-01,7.667e-03
8.554e-01,7.667e-03
8.570e-01,3.833e-03
8.585e-01,1.150e-02
8.601e-01,7.667e-03
8.617e-01,1.917e-03
8.632e-01,1.533e-02
8.648e-01,1.150e-02
8.663e-01,9.583e-03
8.679e-01,1.725e-02
8.695e-01,2.108e-02
8.710e-01,1.533e-02
8.726e-01,1.917e-02
8.742e-01,1.725e-02
8.757e-01,3.450e-02
8.773e-01,3.067e-02
8.789e-01,4.217e-02
8.804e-01,4.983e-02
8.820e-01,4.217e-02
8.835e-01,5.750e-02
8.851e-01,9.967e-02
8.867e-01,9.008e-02
8.882e-01,9.775e-02
8.898e-01,1.208e-01
8.914e-01,1.380e-01
8.929e-01,1.361e-01
8.945e-01,1.783e-01
8.960e-01,2.128e-01
8.976e-01,2.358e-01
8.992e-01,2.856e-01
9.007e-01,3.833e-01
9.023e-01,3.833e-01
9.039e-01,4.734e-01
9.054e-01,5.865e-01
9.070e-01,5.693e-01
9.086e-01,7.878e-01
9.101e-01,9.066e-01
9.117e-01,1.096e+00
9.132e-01,1.284e+00
9.148e-01,1.436e+00
9.164e-01,1.809e+00
9.179e-01,2.162e+00
9.195e-01,2.530e+00
9.211e-01,3.030e+00
9.226e-01,3.586e+00
9.242e-01,4.148e+00
9.257e-01,5.150e+00
9.273e-01,5.725e+00
9.289e-01,7.442e+00
9.304e-01,8.571e+00
9.320e-01,9.353e+00
9.336e-01,1.196e+01
9.351e-01,1.428e+01
9.367e-01,1.533e+01
9.383e-01,1.943e+01
9.398e-01,2.106e+01
9.414e-01,2.557e+01
9.429e-01,2.887e+01
9.445e-01,3.033e+01
9.461e-01,3.574e+01
9.476e-01,3.897e+01
9.492e-01,3.882e+01
9.508e-01,4.308e+01
9.523e-01,4.405e+01
9.539e-01,3.981e+01
9.554e-01,3.945e+01
9.570e-01,3.347e+01
9.586e-01,3.026e+01
9.601e-01,2.397e+01
9.617e-01,1.671e+01
9.633e-01,1.206e+01
9.648e-01,6.996e+00
9.664e-01,3.575e+00
9.680e-01,1.698e+00
9.695e-01,5.693e-01
9.711e-01,1.744e-01
9.726e-01,3.067e-02
9.742e-01,5.750e-03
9.758e-01,1.917e-03
9.773e-01,0.000e+00
9.789e-01,0.000e+00
9.805e-01,0.000e+00
9.820e-01,0.000e+00
9.836e-01,0.000e+00
9.851e-01,0.000e+00
9.867e-01,0.000e+00
9.883e-01,0.000e+00
9.898e-01,0.000e+00
9.914e-01,0.000e+00
9.930e-01,0.000e+00
9.945e-01,0.000e+00
9.961e-01,0.000e+00
9.977e-01,0.000e+00
9.992e-01,0.000e+00
