transmittance,probability_density
2.915e-01,
2.951e-01,
2.986e-01,
3.022e-01,
3.057e-01,
3.093e-01,
3.128e-01,
3.164e-01,
3.199e-01,
3.235e-01,
3.270e-01,
3.306e-01,
3.341e-01,
3.377e-01,
3.412e-01,
3.448e-01,
3.483e-01,
3.519e-01,
3.554e-01,
3.590e-01,
3.625e-01,
3.661e-01,
3.696e-01,
3.732e-01,
3.767e-01,
3.803e-01,
3.838e-01,
3.874e-01,
3.909e-01,
3.945e-01,
3.980e-01,
4.016e-01,
4.051e-01,
4.087e-01,
4.122e-01,
4.158e-01,
4.194e-01,
4.229e-01,
4.265e-01,
4.300e-01,
4.336e-01,
4.371e-01,
4.407e-01,
4.442e-01,
4.478e-01,
4.513e-01,
4.549e-01,
4.584e-01,
4.620e-01,
4.655e-01,
4.691e-01,
4.726e-01,
4.762e-01,
4.797e-01,
4.833e-01,
4.868e-01,
4.904e-01,
4.939e-01,
4.975e-01,
5.010e-01,
5.046e-01,
5.081e-01,
5.117e-01,
5.152e-01,
5.188e-01,
5.223e-01,
5.259e-01,
5.294e-01,
5.330e-01,
5.365e-01,
5.401e-01,
5.436e-01,
5.472e-01,
5.508e-01,
5.543e-01,
5.579e-01,
5.614e-01,
5.650e-01,
5.685e-01,
5.721e-01,
5.756e-01,
5.792e-01,
5.827e-01,
5.863e-01,
5.898e-01,
5.934e-01,
5.969e-01,
6.005e-01,
6.040e-01,
6.076e-01,
6.111e-01,
6.147e-01,
6.182e-01,
6.218e-01,
6.253e-01,
6.289e-01,
6.324e-01,
6.360e-01,
6.395e-01,
6.431e-01,
6.466e-01,
6.502e-01,
6.537e-01,
6.573e-01,
6.608e-01,
6.644e-01,
6.679e-01,
6.715e-01,
6.751e-01,
6.786e-01,
6.822e-01,
6.857e-01,
6.893e-01,
6.928e-01,
6.964e-01,
6.999e-01,
7.035e-01,
7.070e-01,
7.106e-01,
7.141e-01,
7.177e-01,
7.212e-01,
7.248e-01,
7.283e-01,
7.319e-01,
7.354e-01,
7.390e-01,
7.425e-01,
7.461e-01,
7.496e-01,
7.532e-01,
7.567e-01,
7.603e-01,
7.638e-01,
7.674e-01,
7.709e-01,
7.745e-01,
7.780e-01,
7.816e-01,
7.851e-01,
7.887e-01,
7.922e-01,
7.958e-01,
7.993e-01,
8.029e-01,
8.065e-01,
8.100e-01,
8.136e-01,
8.171e-01,
8.207e-01,
8.242e-01,
8.278e-01,
8.313e-01,
8.349e-01,
8.384e-01,
8.420e-01,
8.455e-01,
8.491e-01,
8.526e-01,
8.562e-01,
8.597e-01,
8.633e-01,
8.668e-01,
8.704e-01,
8.739e-01,
8.775e-01,
8.810e-01,
8.846e-01,
8.881e-01,
8.917e-01,
8.952e-01,
8.988e-01,
9.023e-01,
9.059e-01,
9.094e-01,
9.130e-01,
9.165e-01,
9.201e-01,
9.236e-01,
9.272e-01,
9.307e-01,
9.343e-01,
9.379e-01,
9.414e-01,
9.450e-01,
9.485e-01,
9.521e-01,
9.556e-01,
9.592e-01,
9.627e-01,
9.663e-01,
9.698e-01,
9.734e-01,
9.769e-01,
9.805e-01,
9.840e-01,
9.876e-01,
9.911e-01,
9.947e-01,
9.982e-01,
