transmittance,probability_density
2.732e-04,9.203e+01
8.196e-04,7.525e+01
1.366e-03,6.552e+01
1.912e-03,5.923e+01
2.459e-03,5.479e+01
3.005e-03,5.144e+01
3.552e-03,4.879e+01
4.098e-03,4.660e+01
4.645e-03,4.476e+01
5.191e-03,4.317e+01
5.737e-03,4.179e+01
6.284e-03,4.057e+01
6.830e-03,3.949e+01
7.377e-03,3.852e+01
7.923e-03,3.764e+01
8.470e-03,3.683e+01
9.016e-03,3.608e+01
9.562e-03,3.538e+01
1.011e-02,3.470e+01
1.066e-02,3.403e+01
1.120e-02,3.338e+01
1.175e-02,3.272e+01
1.229e-02,3.206e+01
1.284e-02,3.139e+01
1.339e-02,3.070e+01
1.393e-02,3.000e+01
1.448e-02,2.927e+01
1.503e-02,2.853e+01
1.557e-02,2.777e+01
1.612e-02,2.700e+01
1.667e-02,2.621e+01
1.721e-02,2.542e+01
1.776e-02,2.461e+01
1.831e-02,2.380e+01
1.885e-02,2.298e+01
1.940e-02,2.217e+01
1.994e-02,2.136e+01
2.049e-02,2.055e+01
2.104e-02,1.975e+01
2.158e-02,1.896e+01
2.213e-02,1.818e+01
2.268e-02,1.741e+01
2.322e-02,1.666e+01
2.377e-02,1.593e+01
2.432e-02,1.521e+01
2.486e-02,1.451e+01
2.541e-02,1.384e+01
2.596e-02,1.318e+01
2.650e-02,1.254e+01
2.705e-02,1.193e+01
2.759e-02,1.133e+01
2.814e-02,1.076e+01
2.869e-02,1.021e+01
2.923e-02,9.677e+00
2.978e-02,9.168e+00
3.033e-02,8.680e+00
3.087e-02,8.212e+00
3.142e-02,7.764e+00
3.197e-02,7.337e+00
3.251e-02,6.928e+00
3.306e-02,6.538e+00
3.361e-02,6.167e+00
3.415e-02,5.813e+00
3.470e-02,5.476e+00
3.524e-02,5.156e+00
3.579e-02,4.852e+00
3.634e-02,4.564e+00
3.688e-02,4.290e+00
3.743e-02,4.031e+00
3.798e-02,3.785e+00
3.852e-02,3.553e+00
3.907e-02,3.333e+00
3.962e-02,3.125e+00
4.016e-02,2.929e+00
4.071e-02,2.743e+00
4.126e-02,2.569e+00
4.180e-02,2.404e+00
4.235e-02,2.249e+00
4.289e-02,2.103e+00
4.344e-02,1.965e+00
4.399e-02,1.836e+00
4.453e-02,1.714e+00
4.508e-02,1.600e+00
4.563e-02,1.493e+00
4.617e-02,1.392e+00
4.672e-02,1.298e+00
4.727e-02,1.209e+00
4.781e-02,1.127e+00
4.836e-02,1.049e+00
4.891e-02,9.763e-01
4.945e-02,9.084e-01
5.000e-02,8.448e-01
5.054e-02,7.854e-01
5.109e-02,7.299e-01
5.164e-02,6.781e-01
5.218e-02,6.297e-01
5.273e-02,5.846e-01
5.328e-02,5.425e-01
5.382e-02,5.033e-01
5.437e-02,4.667e-01
5.492e-02,4.326e-01
5.546e-02,4.009e-01
5.601e-02,3.714e-01
5.655e-02,3.440e-01
5.710e-02,3.185e-01
5.765e-02,2.948e-01
5.819e-02,2.727e-01
5.874e-02,2.523e-01
5.929e-02,2.333e-01
5.983e-02,2.156e-01
6.038e-02,1.993e-01
6.093e-02,1.841e-01
6.147e-02,1.700e-01
6.202e-02,1.570e-01
6.257e-02,1.449e-01
6.311e-02,1.337e-01
6.366e-02,1.233e-01
6.420e-02,1.137e-01
6.475e-02,1.049e-01
6.530e-02,9.665e-02
6.584e-02,8.907e-02
6.639e-02,8.205e-02
6.694e-02,7.557e-02
6.748e-02,6.958e-02
6.803e-02,6.405e-02
6.858e-02,5.895e-02
6.912e-02,5.423e-02
6.967e-02,4.988e-02
7.022e-02,4.587e-02
7.076e-02,4.218e-02
7.131e-02,3.877e-02
7.185e-02,3.562e-02
7.240e-02,3.273e-02
7.295e-02,3.006e-02
7.349e-02,2.760e-02
7.404e-02,2.534e-02
7.459e-02,2.326e-02
7.513e-02,2.134e-02
7.568e-02,1.958e-02
7.623e-02,1.796e-02
7.677e-02,1.647e-02
7.732e-02,1.510e-02
7.787e-02,1.384e-02
7.841e-02,1.269e-02
7.896e-02,1.162e-02
7.950e-02,1.065e-02
8.005e-02,9.752e-03
8.060e-02,8.929e-03
8.114e-02,8.174e-03
8.169e-02,7.482e-03
8.224e-02,6.847e-03
8.278e-02,6.264e-03
8.333e-02,5.730e-03
8.388e-02,5.241e-03
8.442e-02,4.792e-03
8.497e-02,4.381e-03
8.552e-02,4.004e-03
8.606e-02,3.659e-03
8.661e-02,3.343e-03
8.715e-02,3.054e-03
8.770e-02,2.789e-03
8.825e-02,2.547e-03
8.879e-02,2.325e-03
8.934e-02,2.123e-03
8.989e-02,1.937e-03
9.043e-02,1.768e-03
9.098e-02,1.613e-03
9.153e-02,1.471e-03
9.207e-02,1.342e-03
9.262e-02,1.223e-03
9.317e-02,1.115e-03
9.371e-02,1.017e-03
9.426e-02,9.265e-04
9.480e-02,8.442e-04
9.535e-02,7.691e-04
9.590e-02,7.006e-04
9.644e-02,6.380e-04
9.699e-02,5.810e-04
9.754e-02,5.289e-04
9.808e-02,4.815e-04
9.863e-02,4.382e-04
9.918e-02,3.987e-04
9.972e-02,3.628e-04
1.003e-01,3.300e-04
1.008e-01,3.002e-04
1.014e-01,2.730e-04
1.019e-01,2.482e-04
1.025e-01,2.256e-04
1.030e-01,2.051e-04
1.035e-01,1.864e-04
1.041e-01,1.694e-04
1.046e-01,1.539e-04
1.052e-01,1.398e-04
1.057e-01,1.269e-04
1.063e-01,1.153e-04
1.068e-01,1.047e-04
1.074e-01,9.501e-05
1.079e-01,8.624e-05
1.085e-01,7.826e-05
1.090e-01,7.102e-05
