transmittance,probability_density
3.861e-01,
3.892e-01,
3.922e-01,
3.953e-01,
3.984e-01,
4.015e-01,
4.045e-01,
4.076e-01,
4.107e-01,
4.138e-01,
4.169e-01,
4.199e-01,
4.230e-01,
4.261e-01,
4.292e-01,
4.322e-01,
4.353e-01,
4.384e-01,
4.415e-01,
4.446e-01,
4.476e-01,
4.507e-01,
4.538e-01,
4.569e-01,
4.599e-01,
4.630e-01,
4.661e-01,
4.692e-01,
4.722e-01,
4.753e-01,
4.784e-01,
4.815e-01,
4.846e-01,
4.876e-01,
4.907e-01,
4.938e-01,
4.969e-01,
4.999e-01,
5.030e-01,
5.061e-01,
5.092e-01,
5.123e-01,
5.153e-01,
5.184e-01,
5.215e-01,
5.246e-01,
5.276e-01,
5.307e-01,
5.338e-01,
5.369e-01,
5.399e-01,
5.430e-01,
5.461e-01,
5.492e-01,
5.523e-01,
5.553e-01,
5.584e-01,
5.615e-01,
5.646e-01,
5.676e-01,
5.707e-01,
5.738e-01,
5.769e-01,
5.800e-01,
5.830e-01,
5.861e-01,
5.892e-01,
5.923e-01,
5.953e-01,
5.984e-01,
6.015e-01,
6.046e-01,
6.076e-01,
6.107e-01,
6.138e-01,
6.169e-01,
6.200e-01,
6.230e-01,
6.261e-01,
6.292e-01,
6.323e-01,
6.353e-01,
6.384e-01,
6.415e-01,
6.446e-01,
6.477e-01,
6.507e-01,
6.538e-01,
6.569e-01,
6.600e-01,
6.630e-01,
6.661e-01,
6.692e-01,
6.723e-01,
6.753e-01,
6.784e-01,
6.815e-01,
6.846e-01,
6.877e-01,
6.907e-01,
6.938e-01,
6.969e-01,
7.000e-01,
7.030e-01,
7.061e-01,
7.092e-01,
7.123e-01,
7.154e-01,
7.184e-01,
7.215e-01,
7.246e-01,
7.277e-01,
7.307e-01,
7.338e-01,
7.369e-01,
7.400e-01,
7.430e-01,
7.461e-01,
7.492e-01,
7.523e-01,
7.554e-01,
7.584e-01,
7.615e-01,
7.646e-01,
7.677e-01,
7.707e-01,
7.738e-01,
7.769e-01,
7.800e-01,
7.831e-01,
7.861e-01,
7.892e-01,
7.923e-01,
7.954e-01,
7.984e-01,
8.015e-01,
8.046e-01,
8.077e-01,
8.107e-01,
8.138e-01,
8.169e-01,
8.200e-01,
8.231e-01,
8.261e-01,
8.292e-01,
8.323e-01,
8.354e-01,
8.384e-01,
8.415e-01,
8.446e-01,
8.477e-01,
8.508e-01,
8.538e-01,
8.569e-01,
8.600e-01,
8.631e-01,
8.661e-01,
8.692e-01,
8.723e-01,
8.754e-01,
8.784e-01,
8.815e-01,
8.846e-01,
8.877e-01,
8.908e-01,
8.938e-01,
8.969e-01,
9.000e-01,
9.031e-01,
9.061e-01,
9.092e-01,
9.123e-01,
9.154e-01,
9.185e-01,
9.215e-01,
9.246e-01,
9.277e-01,
9.308e-01,
9.338e-01,
9.369e-01,
9.400e-01,
9.431e-01,
9.461e-01,
9.492e-01,
9.523e-01,
9.554e-01,
9.585e-01,
9.615e-01,
9.646e-01,
9.677e-01,
9.708e-01,
9.738e-01,
9.769e-01,
9.800e-01,
9.831e-01,
9.862e-01,
9.892e-01,
9.923e-01,
9.954e-01,
9.985e-01,
