transmittance,probability_density
2.862e-01,0.000e+00
2.898e-01,0.000e+00
2.934e-01,0.000e+00
2.970e-01,0.000e+00
3.006e-01,0.000e+00
3.041e-01,0.000e+00
3.077e-01,0.000e+00
3.113e-01,1.363e-03
3.149e-01,0.000e+00
3.184e-01,0.000e+00
3.220e-01,0.000e+00
3.256e-01,0.000e+00
3.292e-01,0.000e+00
3.328e-01,0.000e+00
3.363e-01,0.000e+00
3.399e-01,0.000e+00
3.435e-01,0.000e+00
3.471e-01,0.000e+00
3.506e-01,0.000e+00
3.542e-01,0.000e+00
3.578e-01,0.000e+00
3.614e-01,0.000e+00
3.650e-01,0.000e+00
3.685e-01,0.000e+00
3.721e-01,0.000e+00
3.757e-01,0.000e+00
3.793e-01,0.000e+00
3.828e-01,0.000e+00
3.864e-01,0.000e+00
3.900e-01,0.000e+00
3.936e-01,0.000e+00
3.972e-01,0.000e+00
4.007e-01,2.726e-03
4.043e-01,0.000e+00
4.079e-01,0.000e+00
4.115e-01,0.000e+00
4.150e-01,0.000e+00
4.186e-01,0.000e+00
4.222e-01,0.000e+00
4.258e-01,0.000e+00
4.294e-01,0.000e+00
4.329e-01,0.000e+00
4.365e-01,0.000e+00
4.401e-01,0.000e+00
4.437e-01,0.000e+00
4.472e-01,1.363e-03
4.508e-01,1.363e-03
4.544e-01,0.000e+00
4.580e-01,1.363e-03
4.616e-01,0.000e+00
4.651e-01,0.000e+00
4.687e-01,1.363e-03
4.723e-01,0.000e+00
4.759e-01,0.000e+00
4.794e-01,0.000e+00
4.830e-01,2.726e-03
4.866e-01,0.000e+00
4.902e-01,0.000e+00
4.938e-01,0.000e+00
4.973e-01,0.000e+00
5.009e-01,0.000e+00
5.045e-01,0.000e+00
5.081e-01,0.000e+00
5.116e-01,0.000e+00
5.152e-01,4.089e-03
5.188e-01,0.000e+00
5.224e-01,0.000e+00
5.260e-01,0.000e+00
5.295e-01,2.726e-03
5.331e-01,2.726e-03
5.367e-01,0.000e+00
5.403e-01,0.000e+00
5.438e-01,0.000e+00
5.474e-01,0.000e+00
5.510e-01,0.000e+00
5.546e-01,0.000e+00
5.582e-01,0.000e+00
5.617e-01,0.000e+00
5.653e-01,1.363e-03
5.689e-01,0.000e+00
5.725e-01,1.363e-03
5.760e-01,0.000e+00
5.796e-01,1.363e-03
5.832e-01,0.000e+00
5.868e-01,0.000e+00
5.904e-01,1.363e-03
5.939e-01,1.363e-03
5.975e-01,0.000e+00
6.011e-01,2.726e-03
6.047e-01,1.363e-03
6.082e-01,1.363e-03
6.118e-01,0.000e+00
6.154e-01,0.000e+00
6.190e-01,4.089e-03
6.225e-01,0.000e+00
6.261e-01,0.000e+00
6.297e-01,2.726e-03
6.333e-01,1.363e-03
6.369e-01,1.363e-03
6.404e-01,0.000e+00
6.440e-01,1.363e-03
6.476e-01,0.000e+00
6.512e-01,2.726e-03
6.547e-01,0.000e+00
6.583e-01,4.089e-03
6.619e-01,2.726e-03
6.655e-01,1.363e-03
6.691e-01,1.363e-03
6.726e-01,1.363e-03
6.762e-01,1.363e-03
6.798e-01,2.726e-03
6.834e-01,5.451e-03
6.869e-01,6.814e-03
6.905e-01,1.363e-03
6.941e-01,5.451e-03
6.977e-01,0.000e+00
7.013e-01,9.540e-03
7.048e-01,1.363e-03
7.084e-01,4.089e-03
7.120e-01,5.451e-03
7.156e-01,5.451e-03
7.191e-01,4.089e-03
7.227e-01,8.177e-03
7.263e-01,2.726e-03
7.299e-01,1.090e-02
7.335e-01,5.451e-03
7.370e-01,5.451e-03
7.406e-01,1.499e-02
7.442e-01,8.177e-03
7.478e-01,1.499e-02
7.513e-01,1.363e-02
7.549e-01,9.540e-03
7.585e-01,1.499e-02
7.621e-01,1.090e-02
7.657e-01,1.227e-02
7.692e-01,1.090e-02
7.728e-01,1.635e-02
7.764e-01,2.998e-02
7.800e-01,1.772e-02
7.835e-01,2.044e-02
7.871e-01,1.772e-02
7.907e-01,2.726e-02
7.943e-01,2.862e-02
7.979e-01,2.998e-02
8.014e-01,2.453e-02
8.050e-01,3.135e-02
8.086e-01,3.680e-02
8.122e-01,4.770e-02
8.157e-01,4.906e-02
8.193e-01,3.816e-02
8.229e-01,5.997e-02
8.265e-01,5.451e-02
8.301e-01,6.133e-02
8.336e-01,8.041e-02
8.372e-01,7.768e-02
8.408e-01,7.223e-02
8.444e-01,8.859e-02
8.479e-01,1.118e-01
8.515e-01,1.336e-01
8.551e-01,1.390e-01
8.587e-01,1.486e-01
8.623e-01,1.690e-01
8.658e-01,2.317e-01
8.694e-01,2.399e-01
8.730e-01,2.644e-01
8.766e-01,3.121e-01
8.801e-01,3.325e-01
8.837e-01,4.211e-01
8.873e-01,4.920e-01
8.909e-01,5.383e-01
8.945e-01,7.141e-01
8.980e-01,8.123e-01
9.016e-01,9.676e-01
9.052e-01,1.156e+00
9.088e-01,1.529e+00
9.123e-01,1.868e+00
9.159e-01,2.284e+00
9.195e-01,3.028e+00
9.231e-01,3.862e+00
9.267e-01,5.079e+00
9.302e-01,6.831e+00
9.338e-01,9.522e+00
9.374e-01,1.273e+01
9.410e-01,1.809e+01
9.445e-01,2.529e+01
9.481e-01,3.434e+01
9.517e-01,4.176e+01
9.553e-01,4.655e+01
9.589e-01,3.689e+01
9.624e-01,1.758e+01
9.660e-01,3.715e+00
9.696e-01,2.126e-01
9.732e-01,4.089e-03
9.767e-01,0.000e+00
9.803e-01,0.000e+00
9.839e-01,0.000e+00
9.875e-01,0.000e+00
9.911e-01,0.000e+00
9.946e-01,0.000e+00
9.982e-01,0.000e+00
