transmittance,probability_density
2.732e-04,4.706e+00
8.196e-04,1.560e+01
1.366e-03,2.635e+01
1.912e-03,3.629e+01
2.459e-03,4.493e+01
3.005e-03,5.198e+01
3.552e-03,5.737e+01
4.098e-03,6.117e+01
4.645e-03,6.357e+01
5.191e-03,6.478e+01
5.737e-03,6.501e+01
6.284e-03,6.445e+01
6.830e-03,6.329e+01
7.377e-03,6.166e+01
7.923e-03,5.970e+01
8.470e-03,5.750e+01
9.016e-03,5.516e+01
9.562e-03,5.272e+01
1.011e-02,5.024e+01
1.066e-02,4.777e+01
1.120e-02,4.533e+01
1.175e-02,4.295e+01
1.229e-02,4.064e+01
1.284e-02,3.841e+01
1.339e-02,3.627e+01
1.393e-02,3.422e+01
1.448e-02,3.227e+01
1.503e-02,3.042e+01
1.557e-02,2.867e+01
1.612e-02,2.701e+01
1.667e-02,2.544e+01
1.721e-02,2.396e+01
1.776e-02,2.257e+01
1.831e-02,2.126e+01
1.885e-02,2.002e+01
1.940e-02,1.886e+01
1.994e-02,1.777e+01
2.049e-02,1.674e+01
2.104e-02,1.578e+01
2.158e-02,1.487e+01
2.213e-02,1.402e+01
2.268e-02,1.322e+01
2.322e-02,1.247e+01
2.377e-02,1.177e+01
2.432e-02,1.111e+01
2.486e-02,1.049e+01
2.541e-02,9.904e+00
2.596e-02,9.355e+00
2.650e-02,8.840e+00
2.705e-02,8.355e+00
2.759e-02,7.900e+00
2.814e-02,7.472e+00
2.869e-02,7.069e+00
2.923e-02,6.690e+00
2.978e-02,6.333e+00
3.033e-02,5.997e+00
3.087e-02,5.681e+00
3.142e-02,5.383e+00
3.197e-02,5.102e+00
3.251e-02,4.838e+00
3.306e-02,4.589e+00
3.361e-02,4.353e+00
3.415e-02,4.132e+00
3.470e-02,3.922e+00
3.524e-02,3.725e+00
3.579e-02,3.538e+00
3.634e-02,3.362e+00
3.688e-02,3.195e+00
3.743e-02,3.038e+00
3.798e-02,2.889e+00
3.852e-02,2.749e+00
3.907e-02,2.615e+00
3.962e-02,2.490e+00
4.016e-02,2.370e+00
4.071e-02,2.257e+00
4.126e-02,2.151e+00
4.180e-02,2.049e+00
4.235e-02,1.953e+00
4.289e-02,1.862e+00
4.344e-02,1.776e+00
4.399e-02,1.694e+00
4.453e-02,1.617e+00
4.508e-02,1.543e+00
4.563e-02,1.473e+00
4.617e-02,1.407e+00
4.672e-02,1.344e+00
4.727e-02,1.284e+00
4.781e-02,1.227e+00
4.836e-02,1.172e+00
4.891e-02,1.121e+00
4.945e-02,1.072e+00
5.000e-02,1.025e+00
5.054e-02,9.811e-01
5.109e-02,9.389e-01
5.164e-02,8.987e-01
5.218e-02,8.604e-01
5.273e-02,8.239e-01
5.328e-02,7.892e-01
5.382e-02,7.561e-01
5.437e-02,7.245e-01
5.492e-02,6.944e-01
5.546e-02,6.657e-01
5.601e-02,6.383e-01
5.655e-02,6.122e-01
5.710e-02,5.872e-01
5.765e-02,5.634e-01
5.819e-02,5.407e-01
5.874e-02,5.190e-01
5.929e-02,4.982e-01
5.983e-02,4.784e-01
6.038e-02,4.594e-01
6.093e-02,4.413e-01
6.147e-02,4.240e-01
6.202e-02,4.074e-01
6.257e-02,3.916e-01
6.311e-02,3.764e-01
6.366e-02,3.619e-01
6.420e-02,3.480e-01
6.475e-02,3.348e-01
6.530e-02,3.220e-01
6.584e-02,3.098e-01
6.639e-02,2.982e-01
6.694e-02,2.870e-01
6.748e-02,2.762e-01
6.803e-02,2.660e-01
6.858e-02,2.561e-01
6.912e-02,2.467e-01
6.967e-02,2.376e-01
7.022e-02,2.289e-01
7.076e-02,2.206e-01
7.131e-02,2.126e-01
7.185e-02,2.049e-01
7.240e-02,1.975e-01
7.295e-02,1.905e-01
7.349e-02,1.837e-01
7.404e-02,1.771e-01
7.459e-02,1.709e-01
7.513e-02,1.649e-01
7.568e-02,1.591e-01
7.623e-02,1.535e-01
7.677e-02,1.482e-01
7.732e-02,1.430e-01
7.787e-02,1.381e-01
7.841e-02,1.333e-01
7.896e-02,1.288e-01
7.950e-02,1.244e-01
8.005e-02,1.201e-01
8.060e-02,1.161e-01
8.114e-02,1.122e-01
8.169e-02,1.084e-01
8.224e-02,1.048e-01
8.278e-02,1.013e-01
8.333e-02,9.789e-02
8.388e-02,9.465e-02
8.442e-02,9.153e-02
8.497e-02,8.852e-02
8.552e-02,8.562e-02
8.606e-02,8.283e-02
8.661e-02,8.014e-02
8.715e-02,7.754e-02
8.770e-02,7.504e-02
8.825e-02,7.263e-02
8.879e-02,7.030e-02
8.934e-02,6.806e-02
8.989e-02,6.589e-02
9.043e-02,6.380e-02
9.098e-02,6.179e-02
9.153e-02,5.984e-02
9.207e-02,5.797e-02
9.262e-02,5.615e-02
9.317e-02,5.441e-02
9.371e-02,5.272e-02
9.426e-02,5.109e-02
9.480e-02,4.951e-02
9.535e-02,4.799e-02
9.590e-02,4.652e-02
9.644e-02,4.510e-02
9.699e-02,4.373e-02
9.754e-02,4.241e-02
9.808e-02,4.112e-02
9.863e-02,3.989e-02
9.918e-02,3.869e-02
9.972e-02,3.753e-02
1.003e-01,3.641e-02
1.008e-01,3.533e-02
1.014e-01,3.429e-02
1.019e-01,3.327e-02
1.025e-01,3.229e-02
1.030e-01,3.135e-02
1.035e-01,3.043e-02
1.041e-01,2.954e-02
1.046e-01,2.869e-02
1.052e-01,2.785e-02
1.057e-01,2.705e-02
1.063e-01,2.627e-02
1.068e-01,2.552e-02
1.074e-01,2.479e-02
1.079e-01,2.408e-02
1.085e-01,2.340e-02
1.090e-01,2.273e-02
