transmittance,probability_density
1.465e-03,0.000e+00
4.394e-03,0.000e+00
7.323e-03,0.000e+00
1.025e-02,0.000e+00
1.318e-02,0.000e+00
1.611e-02,0.000e+00
1.904e-02,0.000e+00
2.197e-02,0.000e+00
2.490e-02,0.000e+00
2.783e-02,0.000e+00
3.076e-02,0.000e+00
3.369e-02,0.000e+00
3.662e-02,0.000e+00
3.955e-02,0.000e+00
4.247e-02,0.000e+00
4.540e-02,0.000e+00
4.833e-02,0.000e+00
5.126e-02,0.000e+00
5.419e-02,0.000e+00
5.712e-02,0.000e+00
6.005e-02,0.000e+00
6.298e-02,0.000e+00
6.591e-02,0.000e+00
6.884e-02,0.000e+00
7.177e-02,0.000e+00
7.470e-02,0.000e+00
7.763e-02,0.000e+00
8.056e-02,0.000e+00
8.349e-02,0.000e+00
8.641e-02,0.000e+00
8.934e-02,3.415e-03
9.227e-02,0.000e+00
9.520e-02,0.000e+00
9.813e-02,0.000e+00
1.011e-01,1.025e-02
1.040e-01,3.415e-03
1.069e-01,6.831e-03
1.098e-01,1.366e-02
1.128e-01,1.366e-02
1.157e-01,4.440e-02
1.186e-01,1.366e-02
1.216e-01,2.049e-02
1.245e-01,7.855e-02
1.274e-01,7.855e-02
1.304e-01,1.469e-01
1.333e-01,2.118e-01
1.362e-01,2.801e-01
1.391e-01,4.133e-01
1.421e-01,5.089e-01
1.450e-01,7.924e-01
1.479e-01,1.021e+00
1.509e-01,1.236e+00
1.538e-01,1.537e+00
1.567e-01,2.077e+00
1.596e-01,2.551e+00
1.626e-01,3.275e+00
1.655e-01,4.037e+00
1.684e-01,4.816e+00
1.714e-01,5.663e+00
1.743e-01,6.575e+00
1.772e-01,6.964e+00
1.802e-01,8.183e+00
1.831e-01,9.150e+00
1.860e-01,1.021e+01
1.889e-01,1.084e+01
1.919e-01,1.185e+01
1.948e-01,1.258e+01
1.977e-01,1.271e+01
2.007e-01,1.390e+01
2.036e-01,1.407e+01
2.065e-01,1.383e+01
2.094e-01,1.354e+01
2.124e-01,1.357e+01
2.153e-01,1.325e+01
2.182e-01,1.305e+01
2.212e-01,1.243e+01
2.241e-01,1.196e+01
2.270e-01,1.110e+01
2.300e-01,1.037e+01
2.329e-01,9.577e+00
2.358e-01,8.897e+00
2.387e-01,8.217e+00
2.417e-01,7.486e+00
2.446e-01,6.745e+00
2.475e-01,5.909e+00
2.505e-01,5.051e+00
2.534e-01,4.758e+00
2.563e-01,3.969e+00
2.592e-01,3.559e+00
2.622e-01,3.053e+00
2.651e-01,2.517e+00
2.680e-01,2.278e+00
2.710e-01,1.896e+00
2.739e-01,1.691e+00
2.768e-01,1.288e+00
2.797e-01,1.066e+00
2.827e-01,8.709e-01
2.856e-01,6.182e-01
2.885e-01,6.182e-01
2.915e-01,4.474e-01
2.944e-01,4.098e-01
2.973e-01,3.006e-01
3.003e-01,2.766e-01
3.032e-01,1.981e-01
3.061e-01,1.708e-01
3.090e-01,1.093e-01
3.120e-01,9.221e-02
3.149e-01,7.172e-02
3.178e-01,3.757e-02
3.208e-01,5.465e-02
3.237e-01,2.049e-02
3.266e-01,2.732e-02
3.295e-01,3.074e-02
3.325e-01,2.732e-02
3.354e-01,1.366e-02
3.383e-01,1.025e-02
3.413e-01,3.415e-03
3.442e-01,6.831e-03
3.471e-01,6.831e-03
3.501e-01,3.415e-03
3.530e-01,0.000e+00
3.559e-01,0.000e+00
3.588e-01,0.000e+00
3.618e-01,0.000e+00
3.647e-01,3.415e-03
3.676e-01,0.000e+00
3.706e-01,3.415e-03
3.735e-01,3.415e-03
3.764e-01,0.000e+00
3.793e-01,0.000e+00
3.823e-01,0.000e+00
3.852e-01,0.000e+00
3.881e-01,0.000e+00
3.911e-01,0.000e+00
3.940e-01,0.000e+00
3.969e-01,0.000e+00
3.998e-01,0.000e+00
4.028e-01,0.000e+00
4.057e-01,0.000e+00
4.086e-01,0.000e+00
4.116e-01,0.000e+00
4.145e-01,0.000e+00
4.174e-01,0.000e+00
4.204e-01,0.000e+00
4.233e-01,0.000e+00
4.262e-01,0.000e+00
4.291e-01,0.000e+00
4.321e-01,0.000e+00
4.350e-01,0.000e+00
4.379e-01,0.000e+00
4.409e-01,0.000e+00
4.438e-01,0.000e+00
4.467e-01,0.000e+00
4.496e-01,0.000e+00
4.526e-01,0.000e+00
4.555e-01,0.000e+00
4.584e-01,0.000e+00
4.614e-01,0.000e+00
4.643e-01,0.000e+00
4.672e-01,0.000e+00
4.702e-01,0.000e+00
4.731e-01,0.000e+00
4.760e-01,0.000e+00
4.789e-01,0.000e+00
4.819e-01,0.000e+00
4.848e-01,0.000e+00
4.877e-01,0.000e+00
4.907e-01,0.000e+00
4.936e-01,0.000e+00
4.965e-01,0.000e+00
4.994e-01,0.000e+00
5.024e-01,0.000e+00
5.053e-01,0.000e+00
5.082e-01,0.000e+00
5.112e-01,0.000e+00
5.141e-01,0.000e+00
5.170e-01,0.000e+00
5.200e-01,0.000e+00
5.229e-01,0.000e+00
5.258e-01,0.000e+00
5.287e-01,0.000e+00
5.317e-01,0.000e+00
5.346e-01,0.000e+00
5.375e-01,0.000e+00
5.405e-01,0.000e+00
5.434e-01,0.000e+00
5.463e-01,0.000e+00
5.492e-01,0.000e+00
5.522e-01,0.000e+00
5.551e-01,0.000e+00
5.580e-01,0.000e+00
5.610e-01,0.000e+00
5.639e-01,0.000e+00
5.668e-01,0.000e+00
5.697e-01,0.000e+00
5.727e-01,0.000e+00
5.756e-01,0.000e+00
5.785e-01,0.000e+00
5.815e-01,0.000e+00
5.844e-01,0.000e+00
