transmittance,probability_density
2.419e-04,0.000e+00
7.258e-04,0.000e+00
1.210e-03,0.000e+00
1.693e-03,0.000e+00
2.177e-03,0.000e+00
2.661e-03,0.000e+00
3.145e-03,0.000e+00
3.629e-03,0.000e+00
4.113e-03,0.000e+00
4.596e-03,0.000e+00
5.080e-03,0.000e+00
5.564e-03,0.000e+00
6.048e-03,0.000e+00
6.532e-03,0.000e+00
7.016e-03,0.000e+00
7.499e-03,0.000e+00
7.983e-03,0.000e+00
8.467e-03,0.000e+00
8.951e-03,0.000e+00
9.435e-03,0.000e+00
9.919e-03,0.000e+00
1.040e-02,0.000e+00
1.089e-02,0.000e+00
1.137e-02,4.139e-02
1.185e-02,2.069e-02
1.234e-02,6.208e-02
1.282e-02,8.277e-02
1.331e-02,2.690e-01
1.379e-02,2.897e-01
1.427e-02,3.311e-01
1.476e-02,6.208e-01
1.524e-02,9.519e-01
1.572e-02,1.490e+00
1.621e-02,2.545e+00
1.669e-02,3.787e+00
1.718e-02,6.146e+00
1.766e-02,7.719e+00
1.814e-02,1.066e+01
1.863e-02,1.502e+01
1.911e-02,2.018e+01
1.960e-02,2.541e+01
2.008e-02,3.309e+01
2.056e-02,4.033e+01
2.105e-02,4.728e+01
2.153e-02,5.633e+01
2.201e-02,6.351e+01
2.250e-02,7.176e+01
2.298e-02,8.259e+01
2.347e-02,8.890e+01
2.395e-02,9.343e+01
2.443e-02,9.697e+01
2.492e-02,1.016e+02
2.540e-02,1.019e+02
2.589e-02,1.008e+02
2.637e-02,9.807e+01
2.685e-02,9.562e+01
2.734e-02,9.231e+01
2.782e-02,8.613e+01
2.830e-02,7.717e+01
2.879e-02,7.061e+01
2.927e-02,6.564e+01
2.976e-02,5.879e+01
3.024e-02,5.229e+01
3.072e-02,4.822e+01
3.121e-02,4.145e+01
3.169e-02,3.605e+01
3.218e-02,3.009e+01
3.266e-02,2.523e+01
3.314e-02,2.057e+01
3.363e-02,1.788e+01
3.411e-02,1.424e+01
3.459e-02,1.229e+01
3.508e-02,1.016e+01
3.556e-02,7.429e+00
3.605e-02,6.767e+00
3.653e-02,5.215e+00
3.701e-02,5.091e+00
3.750e-02,3.311e+00
3.798e-02,2.587e+00
3.846e-02,2.214e+00
3.895e-02,1.635e+00
3.943e-02,1.200e+00
3.992e-02,1.035e+00
4.040e-02,7.036e-01
4.088e-02,6.829e-01
4.137e-02,4.966e-01
4.185e-02,3.311e-01
4.234e-02,4.139e-01
4.282e-02,2.897e-01
4.330e-02,1.449e-01
4.379e-02,6.208e-02
4.427e-02,1.242e-01
4.475e-02,4.139e-02
4.524e-02,4.139e-02
4.572e-02,2.069e-02
4.621e-02,2.069e-02
4.669e-02,4.139e-02
4.717e-02,0.000e+00
4.766e-02,2.069e-02
4.814e-02,0.000e+00
4.863e-02,2.069e-02
4.911e-02,0.000e+00
4.959e-02,0.000e+00
5.008e-02,0.000e+00
5.056e-02,0.000e+00
5.104e-02,0.000e+00
5.153e-02,0.000e+00
5.201e-02,0.000e+00
5.250e-02,0.000e+00
5.298e-02,0.000e+00
5.346e-02,0.000e+00
5.395e-02,0.000e+00
5.443e-02,0.000e+00
5.492e-02,0.000e+00
5.540e-02,0.000e+00
5.588e-02,0.000e+00
5.637e-02,0.000e+00
5.685e-02,0.000e+00
5.733e-02,0.000e+00
5.782e-02,0.000e+00
5.830e-02,0.000e+00
5.879e-02,0.000e+00
5.927e-02,0.000e+00
5.975e-02,0.000e+00
6.024e-02,0.000e+00
6.072e-02,0.000e+00
6.121e-02,0.000e+00
6.169e-02,0.000e+00
6.217e-02,0.000e+00
6.266e-02,0.000e+00
6.314e-02,0.000e+00
6.362e-02,0.000e+00
6.411e-02,0.000e+00
6.459e-02,0.000e+00
6.508e-02,0.000e+00
6.556e-02,0.000e+00
6.604e-02,0.000e+00
6.653e-02,0.000e+00
6.701e-02,0.000e+00
6.749e-02,0.000e+00
6.798e-02,0.000e+00
6.846e-02,0.000e+00
6.895e-02,0.000e+00
6.943e-02,0.000e+00
6.991e-02,0.000e+00
7.040e-02,0.000e+00
7.088e-02,0.000e+00
7.137e-02,0.000e+00
7.185e-02,0.000e+00
7.233e-02,0.000e+00
7.282e-02,0.000e+00
7.330e-02,0.000e+00
7.378e-02,0.000e+00
7.427e-02,0.000e+00
7.475e-02,0.000e+00
7.524e-02,0.000e+00
7.572e-02,0.000e+00
7.620e-02,0.000e+00
7.669e-02,0.000e+00
7.717e-02,0.000e+00
7.766e-02,0.000e+00
7.814e-02,0.000e+00
7.862e-02,0.000e+00
7.911e-02,0.000e+00
7.959e-02,0.000e+00
8.007e-02,0.000e+00
8.056e-02,0.000e+00
8.104e-02,0.000e+00
8.153e-02,0.000e+00
8.201e-02,0.000e+00
8.249e-02,0.000e+00
8.298e-02,0.000e+00
8.346e-02,0.000e+00
8.395e-02,0.000e+00
8.443e-02,0.000e+00
8.491e-02,0.000e+00
8.540e-02,0.000e+00
8.588e-02,0.000e+00
8.636e-02,0.000e+00
8.685e-02,0.000e+00
8.733e-02,0.000e+00
8.782e-02,0.000e+00
8.830e-02,0.000e+00
8.878e-02,0.000e+00
8.927e-02,0.000e+00
8.975e-02,0.000e+00
9.024e-02,0.000e+00
9.072e-02,0.000e+00
9.120e-02,0.000e+00
9.169e-02,0.000e+00
9.217e-02,0.000e+00
9.265e-02,0.000e+00
9.314e-02,0.000e+00
9.362e-02,0.000e+00
9.411e-02,0.000e+00
9.459e-02,0.000e+00
9.507e-02,0.000e+00
9.556e-02,0.000e+00
9.604e-02,0.000e+00
9.653e-02,0.000e+00
