transmittance,probability_density
4.155e-04,0.000e+00
1.247e-03,0.000e+00
2.078e-03,0.000e+00
2.909e-03,0.000e+00
3.740e-03,0.000e+00
4.571e-03,0.000e+00
5.402e-03,0.000e+00
6.233e-03,0.000e+00
7.064e-03,0.000e+00
7.895e-03,0.000e+00
8.726e-03,0.000e+00
9.557e-03,0.000e+00
1.039e-02,0.000e+00
1.122e-02,0.000e+00
1.205e-02,0.000e+00
1.288e-02,0.000e+00
1.371e-02,0.000e+00
1.454e-02,0.000e+00
1.537e-02,0.000e+00
1.621e-02,0.000e+00
1.704e-02,0.000e+00
1.787e-02,0.000e+00
1.870e-02,0.000e+00
1.953e-02,2.409e-02
2.036e-02,2.409e-02
2.119e-02,2.409e-02
2.202e-02,4.817e-02
2.285e-02,4.817e-02
2.368e-02,8.430e-02
2.452e-02,1.325e-01
2.535e-02,3.011e-01
2.618e-02,3.613e-01
2.701e-02,5.179e-01
2.784e-02,9.033e-01
2.867e-02,1.710e+00
2.950e-02,2.228e+00
3.033e-02,3.336e+00
3.116e-02,4.155e+00
3.200e-02,6.311e+00
3.283e-02,8.105e+00
3.366e-02,1.177e+01
3.449e-02,1.474e+01
3.532e-02,1.819e+01
3.615e-02,2.214e+01
3.698e-02,2.710e+01
3.781e-02,3.122e+01
3.864e-02,3.553e+01
3.947e-02,4.055e+01
4.031e-02,4.546e+01
4.114e-02,4.958e+01
4.197e-02,5.318e+01
4.280e-02,5.542e+01
4.363e-02,5.654e+01
4.446e-02,5.666e+01
4.529e-02,5.850e+01
4.612e-02,5.677e+01
4.695e-02,5.650e+01
4.779e-02,5.348e+01
4.862e-02,5.026e+01
4.945e-02,4.717e+01
5.028e-02,4.315e+01
5.111e-02,3.962e+01
5.194e-02,3.532e+01
5.277e-02,3.198e+01
5.360e-02,2.819e+01
5.443e-02,2.456e+01
5.526e-02,2.111e+01
5.610e-02,1.888e+01
5.693e-02,1.598e+01
5.776e-02,1.319e+01
5.859e-02,1.119e+01
5.942e-02,9.779e+00
6.025e-02,7.310e+00
6.108e-02,6.997e+00
6.191e-02,5.227e+00
6.274e-02,4.577e+00
6.358e-02,3.782e+00
6.441e-02,2.866e+00
6.524e-02,2.312e+00
6.607e-02,2.071e+00
6.690e-02,1.373e+00
6.773e-02,8.671e-01
6.856e-02,1.084e+00
6.939e-02,5.660e-01
7.022e-02,5.179e-01
7.105e-02,4.577e-01
7.189e-02,2.529e-01
7.272e-02,2.409e-01
7.355e-02,1.325e-01
7.438e-02,9.635e-02
7.521e-02,1.686e-01
7.604e-02,9.635e-02
7.687e-02,6.022e-02
7.770e-02,7.226e-02
7.853e-02,4.817e-02
7.937e-02,2.409e-02
8.020e-02,0.000e+00
8.103e-02,0.000e+00
8.186e-02,1.204e-02
8.269e-02,0.000e+00
8.352e-02,0.000e+00
8.435e-02,2.409e-02
8.518e-02,0.000e+00
8.601e-02,0.000e+00
8.684e-02,1.204e-02
8.768e-02,0.000e+00
8.851e-02,1.204e-02
8.934e-02,0.000e+00
9.017e-02,0.000e+00
9.100e-02,0.000e+00
9.183e-02,0.000e+00
9.266e-02,0.000e+00
9.349e-02,0.000e+00
9.432e-02,0.000e+00
9.516e-02,0.000e+00
9.599e-02,0.000e+00
9.682e-02,0.000e+00
9.765e-02,0.000e+00
9.848e-02,0.000e+00
9.931e-02,0.000e+00
1.001e-01,0.000e+00
1.010e-01,0.000e+00
1.018e-01,0.000e+00
1.026e-01,0.000e+00
1.035e-01,0.000e+00
1.043e-01,0.000e+00
1.051e-01,0.000e+00
1.060e-01,0.000e+00
1.068e-01,0.000e+00
1.076e-01,0.000e+00
1.085e-01,0.000e+00
1.093e-01,0.000e+00
1.101e-01,0.000e+00
1.109e-01,0.000e+00
1.118e-01,0.000e+00
1.126e-01,0.000e+00
1.134e-01,0.000e+00
1.143e-01,0.000e+00
1.151e-01,0.000e+00
1.159e-01,0.000e+00
1.168e-01,0.000e+00
1.176e-01,0.000e+00
1.184e-01,0.000e+00
1.193e-01,0.000e+00
1.201e-01,0.000e+00
1.209e-01,0.000e+00
1.217e-01,0.000e+00
1.226e-01,0.000e+00
1.234e-01,0.000e+00
1.242e-01,0.000e+00
1.251e-01,0.000e+00
1.259e-01,0.000e+00
1.267e-01,0.000e+00
1.276e-01,0.000e+00
1.284e-01,0.000e+00
1.292e-01,0.000e+00
1.301e-01,0.000e+00
1.309e-01,0.000e+00
1.317e-01,0.000e+00
1.326e-01,0.000e+00
1.334e-01,0.000e+00
1.342e-01,0.000e+00
1.350e-01,0.000e+00
1.359e-01,0.000e+00
1.367e-01,0.000e+00
1.375e-01,0.000e+00
1.384e-01,0.000e+00
1.392e-01,0.000e+00
1.400e-01,0.000e+00
1.409e-01,0.000e+00
1.417e-01,0.000e+00
1.425e-01,0.000e+00
1.434e-01,0.000e+00
1.442e-01,0.000e+00
1.450e-01,0.000e+00
1.458e-01,0.000e+00
1.467e-01,0.000e+00
1.475e-01,0.000e+00
1.483e-01,0.000e+00
1.492e-01,0.000e+00
1.500e-01,0.000e+00
1.508e-01,0.000e+00
1.517e-01,0.000e+00
1.525e-01,0.000e+00
1.533e-01,0.000e+00
1.542e-01,0.000e+00
1.550e-01,0.000e+00
1.558e-01,0.000e+00
1.567e-01,0.000e+00
1.575e-01,0.000e+00
1.583e-01,0.000e+00
1.591e-01,0.000e+00
1.600e-01,0.000e+00
1.608e-01,0.000e+00
1.616e-01,0.000e+00
1.625e-01,0.000e+00
1.633e-01,0.000e+00
1.641e-01,0.000e+00
1.650e-01,0.000e+00
1.658e-01,0.000e+00
