transmittance,probability_density
1.504e-01,0.000e+00
1.547e-01,0.000e+00
1.589e-01,0.000e+00
1.632e-01,0.000e+00
1.674e-01,0.000e+00
1.717e-01,0.000e+00
1.760e-01,0.000e+00
1.802e-01,0.000e+00
1.845e-01,0.000e+00
1.887e-01,0.000e+00
1.930e-01,0.000e+00
1.972e-01,0.000e+00
2.015e-01,0.000e+00
2.058e-01,0.000e+00
2.100e-01,0.000e+00
2.143e-01,0.000e+00
2.185e-01,0.000e+00
2.228e-01,0.000e+00
2.271e-01,0.000e+00
2.313e-01,0.000e+00
2.356e-01,0.000e+00
2.398e-01,0.000e+00
2.441e-01,0.000e+00
2.484e-01,0.000e+00
2.526e-01,0.000e+00
2.569e-01,0.000e+00
2.611e-01,0.000e+00
2.654e-01,0.000e+00
2.696e-01,0.000e+00
2.739e-01,0.000e+00
2.782e-01,0.000e+00
2.824e-01,0.000e+00
2.867e-01,0.000e+00
2.909e-01,0.000e+00
2.952e-01,0.000e+00
2.995e-01,9.395e-03
3.037e-01,4.697e-03
3.080e-01,2.349e-03
3.122e-01,4.697e-03
3.165e-01,0.000e+00
3.207e-01,7.046e-03
3.250e-01,2.349e-03
3.293e-01,4.697e-03
3.335e-01,1.879e-02
3.378e-01,9.395e-03
3.420e-01,2.818e-02
3.463e-01,3.758e-02
3.506e-01,4.228e-02
3.548e-01,5.402e-02
3.591e-01,7.516e-02
3.633e-01,7.516e-02
3.676e-01,1.268e-01
3.719e-01,1.127e-01
3.761e-01,1.644e-01
3.804e-01,1.761e-01
3.846e-01,2.302e-01
3.889e-01,2.443e-01
3.931e-01,3.758e-01
3.974e-01,4.486e-01
4.017e-01,5.449e-01
4.059e-01,6.200e-01
4.102e-01,7.422e-01
4.144e-01,9.183e-01
4.187e-01,1.064e+00
4.230e-01,1.132e+00
4.272e-01,1.484e+00
4.315e-01,1.623e+00
4.357e-01,1.891e+00
4.400e-01,2.072e+00
4.442e-01,2.445e+00
4.485e-01,2.654e+00
4.528e-01,2.931e+00
4.570e-01,3.267e+00
4.613e-01,3.716e+00
4.655e-01,4.009e+00
4.698e-01,4.223e+00
4.741e-01,4.634e+00
4.783e-01,5.054e+00
4.826e-01,5.470e+00
4.868e-01,5.754e+00
4.911e-01,6.238e+00
4.954e-01,6.184e+00
4.996e-01,6.536e+00
5.039e-01,6.689e+00
5.081e-01,6.959e+00
5.124e-01,7.023e+00
5.166e-01,7.013e+00
5.209e-01,7.182e+00
5.252e-01,7.354e+00
5.294e-01,7.119e+00
5.337e-01,6.976e+00
5.379e-01,7.121e+00
5.422e-01,7.030e+00
5.465e-01,6.658e+00
5.507e-01,6.583e+00
5.550e-01,6.290e+00
5.592e-01,6.017e+00
5.635e-01,5.853e+00
5.677e-01,5.604e+00
5.720e-01,5.169e+00
5.763e-01,4.850e+00
5.805e-01,4.380e+00
5.848e-01,3.894e+00
5.890e-01,3.753e+00
5.933e-01,3.448e+00
5.976e-01,3.225e+00
6.018e-01,2.778e+00
6.061e-01,2.443e+00
6.103e-01,2.208e+00
6.146e-01,1.999e+00
6.189e-01,1.776e+00
6.231e-01,1.468e+00
6.274e-01,1.280e+00
6.316e-01,1.062e+00
6.359e-01,1.052e+00
6.401e-01,8.314e-01
6.444e-01,7.281e-01
6.487e-01,6.318e-01
6.529e-01,5.097e-01
6.572e-01,4.369e-01
6.614e-01,3.453e-01
6.657e-01,3.711e-01
6.700e-01,2.724e-01
6.742e-01,2.137e-01
6.785e-01,1.362e-01
6.827e-01,1.292e-01
6.870e-01,1.339e-01
6.912e-01,7.516e-02
6.955e-01,4.932e-02
6.998e-01,7.046e-02
7.040e-01,3.758e-02
7.083e-01,3.758e-02
7.125e-01,2.584e-02
7.168e-01,1.644e-02
7.211e-01,2.818e-02
7.253e-01,4.697e-03
7.296e-01,0.000e+00
7.338e-01,7.046e-03
7.381e-01,4.697e-03
7.424e-01,2.349e-03
7.466e-01,0.000e+00
7.509e-01,0.000e+00
7.551e-01,2.349e-03
7.594e-01,0.000e+00
7.636e-01,0.000e+00
7.679e-01,0.000e+00
7.722e-01,0.000e+00
7.764e-01,0.000e+00
7.807e-01,0.000e+00
7.849e-01,0.000e+00
7.892e-01,0.000e+00
7.935e-01,0.000e+00
7.977e-01,0.000e+00
8.020e-01,0.000e+00
8.062e-01,0.000e+00
8.105e-01,0.000e+00
8.147e-01,0.000e+00
8.190e-01,0.000e+00
8.233e-01,0.000e+00
8.275e-01,0.000e+00
8.318e-01,0.000e+00
8.360e-01,0.000e+00
8.403e-01,0.000e+00
8.446e-01,0.000e+00
8.488e-01,0.000e+00
8.531e-01,0.000e+00
8.573e-01,0.000e+00
8.616e-01,0.000e+00
8.659e-01,0.000e+00
8.701e-01,0.000e+00
8.744e-01,0.000e+00
8.786e-01,0.000e+00
8.829e-01,0.000e+00
8.871e-01,0.000e+00
8.914e-01,0.000e+00
8.957e-01,0.000e+00
8.999e-01,0.000e+00
9.042e-01,0.000e+00
9.084e-01,0.000e+00
9.127e-01,0.000e+00
9.170e-01,0.000e+00
9.212e-01,0.000e+00
9.255e-01,0.000e+00
9.297e-01,0.000e+00
9.340e-01,0.000e+00
9.382e-01,0.000e+00
9.425e-01,0.000e+00
9.468e-01,0.000e+00
9.510e-01,0.000e+00
9.553e-01,0.000e+00
9.595e-01,0.000e+00
9.638e-01,0.000e+00
9.681e-01,0.000e+00
9.723e-01,0.000e+00
9.766e-01,0.000e+00
9.808e-01,0.000e+00
9.851e-01,0.000e+00
9.894e-01,0.000e+00
9.936e-01,0.000e+00
9.979e-01,0.000e+00
