transmittance,probability_density
2.661e-01,0.000e+00
2.698e-01,0.000e+00
2.735e-01,0.000e+00
2.771e-01,0.000e+00
2.808e-01,0.000e+00
2.845e-01,0.000e+00
2.882e-01,0.000e+00
2.919e-01,0.000e+00
2.955e-01,0.000e+00
2.992e-01,0.000e+00
3.029e-01,0.000e+00
3.066e-01,0.000e+00
3.103e-01,0.000e+00
3.139e-01,0.000e+00
3.176e-01,0.000e+00
3.213e-01,0.000e+00
3.250e-01,0.000e+00
3.286e-01,0.000e+00
3.323e-01,0.000e+00
3.360e-01,0.000e+00
3.397e-01,0.000e+00
3.434e-01,0.000e+00
3.470e-01,0.000e+00
3.507e-01,0.000e+00
3.544e-01,0.000e+00
3.581e-01,0.000e+00
3.618e-01,0.000e+00
3.654e-01,0.000e+00
3.691e-01,0.000e+00
3.728e-01,0.000e+00
3.765e-01,0.000e+00
3.801e-01,0.000e+00
3.838e-01,2.719e-03
3.875e-01,0.000e+00
3.912e-01,2.719e-03
3.949e-01,2.719e-03
3.985e-01,8.157e-03
4.022e-01,2.719e-03
4.059e-01,1.631e-02
4.096e-01,1.359e-02
4.133e-01,2.175e-02
4.169e-01,1.359e-02
4.206e-01,1.903e-02
4.243e-01,2.991e-02
4.280e-01,3.806e-02
4.317e-01,5.710e-02
4.353e-01,6.525e-02
4.390e-01,4.894e-02
4.427e-01,4.350e-02
4.464e-01,8.701e-02
4.500e-01,1.006e-01
4.537e-01,1.414e-01
4.574e-01,1.903e-01
4.611e-01,2.393e-01
4.648e-01,1.930e-01
4.684e-01,3.045e-01
4.721e-01,2.855e-01
4.758e-01,3.562e-01
4.795e-01,4.840e-01
4.832e-01,5.302e-01
4.868e-01,5.492e-01
4.905e-01,7.559e-01
4.942e-01,8.374e-01
4.979e-01,8.809e-01
5.015e-01,1.107e+00
5.052e-01,1.098e+00
5.089e-01,1.270e+00
5.126e-01,1.474e+00
5.163e-01,1.593e+00
5.199e-01,1.982e+00
5.236e-01,2.102e+00
5.273e-01,2.273e+00
5.310e-01,2.384e+00
5.347e-01,2.738e+00
5.383e-01,3.045e+00
5.420e-01,3.388e+00
5.457e-01,3.529e+00
5.494e-01,3.643e+00
5.530e-01,4.135e+00
5.567e-01,4.299e+00
5.604e-01,4.720e+00
5.641e-01,4.908e+00
5.678e-01,5.451e+00
5.714e-01,5.424e+00
5.751e-01,5.914e+00
5.788e-01,6.039e+00
5.825e-01,6.169e+00
5.862e-01,6.468e+00
5.898e-01,6.781e+00
5.935e-01,6.852e+00
5.972e-01,6.637e+00
6.009e-01,6.762e+00
6.045e-01,7.039e+00
6.082e-01,7.069e+00
6.119e-01,6.906e+00
6.156e-01,6.786e+00
6.193e-01,7.012e+00
6.229e-01,7.124e+00
6.266e-01,6.868e+00
6.303e-01,6.743e+00
6.340e-01,6.784e+00
6.377e-01,6.286e+00
6.413e-01,6.389e+00
6.450e-01,6.273e+00
6.487e-01,5.615e+00
6.524e-01,5.476e+00
6.560e-01,5.141e+00
6.597e-01,4.935e+00
6.634e-01,4.886e+00
6.671e-01,4.396e+00
6.708e-01,4.000e+00
6.744e-01,3.864e+00
6.781e-01,3.608e+00
6.818e-01,3.290e+00
6.855e-01,2.977e+00
6.892e-01,2.722e+00
6.928e-01,2.575e+00
6.965e-01,2.355e+00
7.002e-01,2.094e+00
7.039e-01,1.843e+00
7.075e-01,1.707e+00
7.112e-01,1.566e+00
7.149e-01,1.297e+00
7.186e-01,1.137e+00
7.223e-01,9.652e-01
7.259e-01,8.673e-01
7.296e-01,6.743e-01
7.333e-01,6.580e-01
7.370e-01,5.438e-01
7.407e-01,4.677e-01
7.443e-01,4.133e-01
7.480e-01,3.426e-01
7.517e-01,2.610e-01
7.554e-01,2.610e-01
7.590e-01,2.148e-01
7.627e-01,1.794e-01
7.664e-01,1.468e-01
7.701e-01,1.033e-01
7.738e-01,1.006e-01
7.774e-01,8.157e-02
7.811e-01,6.254e-02
7.848e-01,3.806e-02
7.885e-01,4.350e-02
7.922e-01,2.719e-02
7.958e-01,1.359e-02
7.995e-01,2.991e-02
8.032e-01,1.359e-02
8.069e-01,1.903e-02
8.106e-01,1.088e-02
8.142e-01,1.088e-02
8.179e-01,5.438e-03
8.216e-01,5.438e-03
8.253e-01,8.157e-03
8.289e-01,0.000e+00
8.326e-01,0.000e+00
8.363e-01,2.719e-03
8.400e-01,0.000e+00
8.437e-01,0.000e+00
8.473e-01,0.000e+00
8.510e-01,0.000e+00
8.547e-01,0.000e+00
8.584e-01,0.000e+00
8.621e-01,0.000e+00
8.657e-01,0.000e+00
8.694e-01,0.000e+00
8.731e-01,0.000e+00
8.768e-01,0.000e+00
8.804e-01,0.000e+00
8.841e-01,0.000e+00
8.878e-01,0.000e+00
8.915e-01,0.000e+00
8.952e-01,0.000e+00
8.988e-01,0.000e+00
9.025e-01,0.000e+00
9.062e-01,0.000e+00
9.099e-01,0.000e+00
9.136e-01,0.000e+00
9.172e-01,0.000e+00
9.209e-01,0.000e+00
9.246e-01,0.000e+00
9.283e-01,0.000e+00
9.319e-01,0.000e+00
9.356e-01,0.000e+00
9.393e-01,0.000e+00
9.430e-01,0.000e+00
9.467e-01,0.000e+00
9.503e-01,0.000e+00
9.540e-01,0.000e+00
9.577e-01,0.000e+00
9.614e-01,0.000e+00
9.651e-01,0.000e+00
9.687e-01,0.000e+00
9.724e-01,0.000e+00
9.761e-01,0.000e+00
9.798e-01,0.000e+00
9.834e-01,0.000e+00
9.871e-01,0.000e+00
9.908e-01,0.000e+00
9.945e-01,0.000e+00
9.982e-01,0.000e+00
