transmittance,probability_density
4.928e-01,0.000e+00
4.954e-01,0.000e+00
4.979e-01,0.000e+00
5.004e-01,0.000e+00
5.030e-01,0.000e+00
5.055e-01,0.000e+00
5.081e-01,0.000e+00
5.106e-01,0.000e+00
5.132e-01,0.000e+00
5.157e-01,0.000e+00
5.182e-01,0.000e+00
5.208e-01,0.000e+00
5.233e-01,0.000e+00
5.259e-01,0.000e+00
5.284e-01,0.000e+00
5.310e-01,0.000e+00
5.335e-01,0.000e+00
5.360e-01,0.000e+00
5.386e-01,0.000e+00
5.411e-01,0.000e+00
5.437e-01,0.000e+00
5.462e-01,0.000e+00
5.487e-01,0.000e+00
5.513e-01,0.000e+00
5.538e-01,0.000e+00
5.564e-01,0.000e+00
5.589e-01,0.000e+00
5.615e-01,0.000e+00
5.640e-01,0.000e+00
5.665e-01,0.000e+00
5.691e-01,0.000e+00
5.716e-01,0.000e+00
5.742e-01,0.000e+00
5.767e-01,0.000e+00
5.793e-01,0.000e+00
5.818e-01,0.000e+00
5.843e-01,0.000e+00
5.869e-01,0.000e+00
5.894e-01,0.000e+00
5.920e-01,0.000e+00
5.945e-01,0.000e+00
5.970e-01,0.000e+00
5.996e-01,0.000e+00
6.021e-01,0.000e+00
6.047e-01,0.000e+00
6.072e-01,3.934e-03
6.098e-01,0.000e+00
6.123e-01,0.000e+00
6.148e-01,0.000e+00
6.174e-01,0.000e+00
6.199e-01,0.000e+00
6.225e-01,3.934e-03
6.250e-01,3.934e-03
6.276e-01,3.934e-03
6.301e-01,7.868e-03
6.326e-01,0.000e+00
6.352e-01,1.180e-02
6.377e-01,1.180e-02
6.403e-01,1.967e-02
6.428e-01,1.180e-02
6.454e-01,7.868e-03
6.479e-01,1.967e-02
6.504e-01,3.147e-02
6.530e-01,1.574e-02
6.555e-01,2.360e-02
6.581e-01,3.934e-03
6.606e-01,2.360e-02
6.631e-01,2.754e-02
6.657e-01,2.360e-02
6.682e-01,5.508e-02
6.708e-01,2.360e-02
6.733e-01,3.934e-02
6.759e-01,5.114e-02
6.784e-01,6.688e-02
6.809e-01,6.295e-02
6.835e-01,6.688e-02
6.860e-01,8.655e-02
6.886e-01,9.835e-02
6.911e-01,1.023e-01
6.937e-01,1.259e-01
6.962e-01,1.652e-01
6.987e-01,1.534e-01
7.013e-01,1.849e-01
7.038e-01,1.849e-01
7.064e-01,2.321e-01
7.089e-01,2.597e-01
7.115e-01,2.833e-01
7.140e-01,3.108e-01
7.165e-01,4.092e-01
7.191e-01,4.524e-01
7.216e-01,4.642e-01
7.242e-01,5.114e-01
7.267e-01,5.547e-01
7.292e-01,6.924e-01
7.318e-01,6.491e-01
7.343e-01,6.373e-01
7.369e-01,7.632e-01
7.394e-01,8.498e-01
7.420e-01,1.011e+00
7.445e-01,9.599e-01
7.470e-01,1.283e+00
7.496e-01,1.365e+00
7.521e-01,1.385e+00
7.547e-01,1.467e+00
7.572e-01,1.664e+00
7.598e-01,1.908e+00
7.623e-01,1.924e+00
7.648e-01,2.168e+00
7.674e-01,2.187e+00
7.699e-01,2.573e+00
7.725e-01,2.789e+00
7.750e-01,2.911e+00
7.776e-01,3.179e+00
7.801e-01,3.403e+00
7.826e-01,3.808e+00
7.852e-01,4.005e+00
7.877e-01,4.072e+00
7.903e-01,4.162e+00
7.928e-01,4.697e+00
7.953e-01,4.815e+00
7.979e-01,5.099e+00
8.004e-01,5.394e+00
8.030e-01,5.866e+00
8.055e-01,5.838e+00
8.081e-01,6.283e+00
8.106e-01,6.531e+00
8.131e-01,6.912e+00
8.157e-01,7.066e+00
8.182e-01,7.278e+00
8.208e-01,7.479e+00
8.233e-01,7.998e+00
8.259e-01,7.758e+00
8.284e-01,8.447e+00
8.309e-01,8.576e+00
8.335e-01,8.773e+00
8.360e-01,8.824e+00
8.386e-01,8.521e+00
8.411e-01,8.612e+00
8.437e-01,9.076e+00
8.462e-01,9.178e+00
8.487e-01,9.084e+00
8.513e-01,9.084e+00
8.538e-01,9.112e+00
8.564e-01,8.840e+00
8.589e-01,8.840e+00
8.614e-01,8.301e+00
8.640e-01,8.671e+00
8.665e-01,8.348e+00
8.691e-01,8.026e+00
8.716e-01,7.959e+00
8.742e-01,7.687e+00
8.767e-01,7.144e+00
8.792e-01,6.708e+00
8.818e-01,6.436e+00
8.843e-01,6.377e+00
8.869e-01,5.870e+00
8.894e-01,5.327e+00
8.920e-01,4.906e+00
8.945e-01,4.835e+00
8.970e-01,4.371e+00
8.996e-01,4.162e+00
9.021e-01,3.800e+00
9.047e-01,3.120e+00
9.072e-01,3.155e+00
9.097e-01,2.636e+00
9.123e-01,2.317e+00
9.148e-01,1.877e+00
9.174e-01,1.943e+00
9.199e-01,1.483e+00
9.225e-01,1.318e+00
9.250e-01,1.133e+00
9.275e-01,9.088e-01
9.301e-01,6.413e-01
9.326e-01,6.845e-01
9.352e-01,5.429e-01
9.377e-01,4.721e-01
9.403e-01,3.423e-01
9.428e-01,2.479e-01
9.453e-01,1.692e-01
9.479e-01,1.534e-01
9.504e-01,1.023e-01
9.530e-01,3.934e-02
9.555e-01,4.328e-02
9.581e-01,4.328e-02
9.606e-01,1.967e-02
9.631e-01,1.574e-02
9.657e-01,7.868e-03
9.682e-01,0.000e+00
9.708e-01,3.934e-03
9.733e-01,0.000e+00
9.758e-01,0.000e+00
9.784e-01,0.000e+00
9.809e-01,0.000e+00
9.835e-01,0.000e+00
9.860e-01,0.000e+00
9.886e-01,0.000e+00
9.911e-01,0.000e+00
9.936e-01,0.000e+00
9.962e-01,0.000e+00
9.987e-01,0.000e+00
