transmittance,probability_density
2.833e-01,0.000e+00
2.868e-01,0.000e+00
2.904e-01,0.000e+00
2.940e-01,0.000e+00
2.976e-01,0.000e+00
3.012e-01,0.000e+00
3.048e-01,0.000e+00
3.084e-01,0.000e+00
3.120e-01,0.000e+00
3.156e-01,0.000e+00
3.192e-01,0.000e+00
3.228e-01,0.000e+00
3.264e-01,0.000e+00
3.300e-01,0.000e+00
3.335e-01,0.000e+00
3.371e-01,0.000e+00
3.407e-01,0.000e+00
3.443e-01,0.000e+00
3.479e-01,0.000e+00
3.515e-01,0.000e+00
3.551e-01,0.000e+00
3.587e-01,0.000e+00
3.623e-01,0.000e+00
3.659e-01,0.000e+00
3.695e-01,0.000e+00
3.731e-01,0.000e+00
3.767e-01,0.000e+00
3.803e-01,0.000e+00
3.838e-01,2.784e-03
3.874e-01,0.000e+00
3.910e-01,0.000e+00
3.946e-01,0.000e+00
3.982e-01,0.000e+00
4.018e-01,0.000e+00
4.054e-01,0.000e+00
4.090e-01,0.000e+00
4.126e-01,0.000e+00
4.162e-01,0.000e+00
4.198e-01,0.000e+00
4.234e-01,0.000e+00
4.270e-01,0.000e+00
4.306e-01,2.784e-03
4.341e-01,5.568e-03
4.377e-01,2.784e-03
4.413e-01,2.784e-03
4.449e-01,2.784e-03
4.485e-01,2.784e-03
4.521e-01,8.351e-03
4.557e-01,1.114e-02
4.593e-01,2.784e-03
4.629e-01,5.568e-03
4.665e-01,2.784e-03
4.701e-01,5.568e-03
4.737e-01,1.670e-02
4.773e-01,5.568e-03
4.809e-01,1.114e-02
4.844e-01,1.392e-02
4.880e-01,1.670e-02
4.916e-01,2.505e-02
4.952e-01,2.784e-02
4.988e-01,4.454e-02
5.024e-01,6.124e-02
5.060e-01,7.795e-02
5.096e-01,6.124e-02
5.132e-01,9.743e-02
5.168e-01,9.465e-02
5.204e-01,1.392e-01
5.240e-01,1.086e-01
5.276e-01,1.615e-01
5.311e-01,1.977e-01
5.347e-01,1.837e-01
5.383e-01,2.311e-01
5.419e-01,2.505e-01
5.455e-01,3.257e-01
5.491e-01,3.257e-01
5.527e-01,4.482e-01
5.563e-01,4.621e-01
5.599e-01,5.623e-01
5.635e-01,7.154e-01
5.671e-01,7.154e-01
5.707e-01,8.073e-01
5.743e-01,8.240e-01
5.779e-01,1.033e+00
5.814e-01,1.166e+00
5.850e-01,1.281e+00
5.886e-01,1.436e+00
5.922e-01,1.659e+00
5.958e-01,1.801e+00
5.994e-01,1.910e+00
6.030e-01,2.216e+00
6.066e-01,2.394e+00
6.102e-01,2.770e+00
6.138e-01,2.695e+00
6.174e-01,3.210e+00
6.210e-01,3.118e+00
6.246e-01,3.424e+00
6.282e-01,3.797e+00
6.317e-01,4.000e+00
6.353e-01,4.571e+00
6.389e-01,4.668e+00
6.425e-01,4.763e+00
6.461e-01,5.119e+00
6.497e-01,5.437e+00
6.533e-01,5.760e+00
6.569e-01,5.815e+00
6.605e-01,6.163e+00
6.641e-01,6.094e+00
6.677e-01,6.367e+00
6.713e-01,6.673e+00
6.749e-01,6.695e+00
6.785e-01,7.051e+00
6.820e-01,7.021e+00
6.856e-01,7.310e+00
6.892e-01,7.071e+00
6.928e-01,7.037e+00
6.964e-01,6.890e+00
7.000e-01,6.893e+00
7.036e-01,7.065e+00
7.072e-01,6.946e+00
7.108e-01,6.653e+00
7.144e-01,6.495e+00
7.180e-01,6.333e+00
7.216e-01,6.197e+00
7.252e-01,6.294e+00
7.287e-01,5.796e+00
7.323e-01,5.646e+00
7.359e-01,5.133e+00
7.395e-01,4.961e+00
7.431e-01,4.529e+00
7.467e-01,4.326e+00
7.503e-01,4.148e+00
7.539e-01,3.881e+00
7.575e-01,3.349e+00
7.611e-01,3.346e+00
7.647e-01,2.942e+00
7.683e-01,2.675e+00
7.719e-01,2.503e+00
7.755e-01,2.183e+00
7.790e-01,2.082e+00
7.826e-01,1.829e+00
7.862e-01,1.592e+00
7.898e-01,1.361e+00
7.934e-01,1.289e+00
7.970e-01,1.002e+00
8.006e-01,9.298e-01
8.042e-01,7.377e-01
8.078e-01,6.041e-01
8.114e-01,5.985e-01
8.150e-01,5.039e-01
8.186e-01,4.176e-01
8.222e-01,3.368e-01
8.258e-01,2.617e-01
8.293e-01,2.004e-01
8.329e-01,1.698e-01
8.365e-01,1.559e-01
8.401e-01,9.743e-02
8.437e-01,9.465e-02
8.473e-01,9.187e-02
8.509e-01,6.681e-02
8.545e-01,4.732e-02
8.581e-01,1.949e-02
8.617e-01,8.351e-03
8.653e-01,5.568e-03
8.689e-01,8.351e-03
8.725e-01,2.227e-02
8.761e-01,2.784e-03
8.796e-01,2.784e-03
8.832e-01,5.568e-03
8.868e-01,0.000e+00
8.904e-01,2.784e-03
8.940e-01,2.784e-03
8.976e-01,5.568e-03
9.012e-01,0.000e+00
9.048e-01,0.000e+00
9.084e-01,2.784e-03
9.120e-01,0.000e+00
9.156e-01,0.000e+00
9.192e-01,0.000e+00
9.228e-01,0.000e+00
9.263e-01,0.000e+00
9.299e-01,0.000e+00
9.335e-01,0.000e+00
9.371e-01,0.000e+00
9.407e-01,0.000e+00
9.443e-01,0.000e+00
9.479e-01,0.000e+00
9.515e-01,0.000e+00
9.551e-01,0.000e+00
9.587e-01,0.000e+00
9.623e-01,0.000e+00
9.659e-01,0.000e+00
9.695e-01,0.000e+00
9.731e-01,0.000e+00
9.766e-01,0.000e+00
9.802e-01,0.000e+00
9.838e-01,0.000e+00
9.874e-01,0.000e+00
9.910e-01,0.000e+00
9.946e-01,0.000e+00
9.982e-01,0.000e+00
