transmittance,probability_density
6.656e-01,0.000e+00
6.672e-01,0.000e+00
6.689e-01,0.000e+00
6.706e-01,0.000e+00
6.723e-01,0.000e+00
6.739e-01,0.000e+00
6.756e-01,0.000e+00
6.773e-01,0.000e+00
6.790e-01,0.000e+00
6.807e-01,0.000e+00
6.823e-01,0.000e+00
6.840e-01,0.000e+00
6.857e-01,0.000e+00
6.874e-01,0.000e+00
6.890e-01,0.000e+00
6.907e-01,0.000e+00
6.924e-01,0.000e+00
6.941e-01,0.000e+00
6.957e-01,0.000e+00
6.974e-01,0.000e+00
6.991e-01,0.000e+00
7.008e-01,0.000e+00
7.024e-01,0.000e+00
7.041e-01,0.000e+00
7.058e-01,0.000e+00
7.075e-01,0.000e+00
7.092e-01,0.000e+00
7.108e-01,0.000e+00
7.125e-01,0.000e+00
7.142e-01,0.000e+00
7.159e-01,0.000e+00
7.175e-01,0.000e+00
7.192e-01,0.000e+00
7.209e-01,0.000e+00
7.226e-01,0.000e+00
7.242e-01,0.000e+00
7.259e-01,0.000e+00
7.276e-01,0.000e+00
7.293e-01,0.000e+00
7.309e-01,0.000e+00
7.326e-01,0.000e+00
7.343e-01,0.000e+00
7.360e-01,0.000e+00
7.376e-01,0.000e+00
7.393e-01,0.000e+00
7.410e-01,0.000e+00
7.427e-01,0.000e+00
7.444e-01,0.000e+00
7.460e-01,0.000e+00
7.477e-01,0.000e+00
7.494e-01,0.000e+00
7.511e-01,0.000e+00
7.527e-01,0.000e+00
7.544e-01,0.000e+00
7.561e-01,0.000e+00
7.578e-01,0.000e+00
7.594e-01,5.966e-03
7.611e-01,0.000e+00
7.628e-01,0.000e+00
7.645e-01,0.000e+00
7.661e-01,0.000e+00
7.678e-01,0.000e+00
7.695e-01,0.000e+00
7.712e-01,0.000e+00
7.729e-01,0.000e+00
7.745e-01,0.000e+00
7.762e-01,0.000e+00
7.779e-01,0.000e+00
7.796e-01,0.000e+00
7.812e-01,0.000e+00
7.829e-01,0.000e+00
7.846e-01,0.000e+00
7.863e-01,5.966e-03
7.879e-01,0.000e+00
7.896e-01,0.000e+00
7.913e-01,0.000e+00
7.930e-01,0.000e+00
7.946e-01,0.000e+00
7.963e-01,0.000e+00
7.980e-01,0.000e+00
7.997e-01,0.000e+00
8.014e-01,0.000e+00
8.030e-01,0.000e+00
8.047e-01,0.000e+00
8.064e-01,5.966e-03
8.081e-01,5.966e-03
8.097e-01,5.966e-03
8.114e-01,5.966e-03
8.131e-01,0.000e+00
8.148e-01,5.966e-03
8.164e-01,5.966e-03
8.181e-01,5.966e-03
8.198e-01,1.193e-02
8.215e-01,1.193e-02
8.231e-01,5.966e-03
8.248e-01,5.966e-03
8.265e-01,1.790e-02
8.282e-01,2.386e-02
8.298e-01,1.193e-02
8.315e-01,1.193e-02
8.332e-01,0.000e+00
8.349e-01,2.386e-02
8.366e-01,4.773e-02
8.382e-01,5.369e-02
8.399e-01,5.966e-02
8.416e-01,2.983e-02
8.433e-01,2.983e-02
8.449e-01,2.386e-02
8.466e-01,7.159e-02
8.483e-01,8.352e-02
8.500e-01,5.369e-02
8.516e-01,1.014e-01
8.533e-01,5.369e-02
8.550e-01,9.545e-02
8.567e-01,1.432e-01
8.583e-01,1.134e-01
8.600e-01,1.432e-01
8.617e-01,1.551e-01
8.634e-01,2.506e-01
8.651e-01,2.446e-01
8.667e-01,3.222e-01
8.684e-01,2.565e-01
8.701e-01,3.222e-01
8.718e-01,2.923e-01
8.734e-01,3.580e-01
8.751e-01,3.401e-01
8.768e-01,5.011e-01
8.785e-01,5.369e-01
8.801e-01,5.369e-01
8.818e-01,6.980e-01
8.835e-01,5.489e-01
8.852e-01,7.577e-01
8.868e-01,1.122e+00
8.885e-01,9.307e-01
8.902e-01,1.044e+00
8.919e-01,1.151e+00
8.936e-01,1.289e+00
8.952e-01,1.539e+00
8.969e-01,1.676e+00
8.986e-01,1.879e+00
9.003e-01,1.993e+00
9.019e-01,2.315e+00
9.036e-01,2.524e+00
9.053e-01,2.673e+00
9.070e-01,3.120e+00
9.086e-01,3.365e+00
9.103e-01,3.603e+00
9.120e-01,3.961e+00
9.137e-01,4.516e+00
9.153e-01,4.576e+00
9.170e-01,4.916e+00
9.187e-01,5.441e+00
9.204e-01,5.853e+00
9.220e-01,6.568e+00
9.237e-01,6.962e+00
9.254e-01,7.583e+00
9.271e-01,8.066e+00
9.288e-01,8.722e+00
9.304e-01,9.617e+00
9.321e-01,9.862e+00
9.338e-01,1.071e+01
9.355e-01,1.102e+01
9.371e-01,1.212e+01
9.388e-01,1.309e+01
9.405e-01,1.401e+01
9.422e-01,1.417e+01
9.438e-01,1.497e+01
9.455e-01,1.597e+01
9.472e-01,1.644e+01
9.489e-01,1.707e+01
9.505e-01,1.768e+01
9.522e-01,1.820e+01
9.539e-01,1.846e+01
9.556e-01,1.908e+01
9.573e-01,1.908e+01
9.589e-01,1.988e+01
9.606e-01,1.942e+01
9.623e-01,1.843e+01
9.640e-01,1.923e+01
9.656e-01,1.812e+01
9.673e-01,1.737e+01
9.690e-01,1.707e+01
9.707e-01,1.663e+01
9.723e-01,1.559e+01
9.740e-01,1.399e+01
9.757e-01,1.284e+01
9.774e-01,1.100e+01
9.790e-01,9.635e+00
9.807e-01,8.889e+00
9.824e-01,6.437e+00
9.841e-01,5.322e+00
9.858e-01,3.961e+00
9.874e-01,2.643e+00
9.891e-01,1.903e+00
9.908e-01,9.784e-01
9.925e-01,5.131e-01
9.941e-01,2.864e-01
9.958e-01,2.983e-02
9.975e-01,0.000e+00
9.992e-01,0.000e+00
