transmittance,probability_density
2.196e-03,0.000e+00
6.587e-03,0.000e+00
1.098e-02,0.000e+00
1.537e-02,0.000e+00
1.976e-02,0.000e+00
2.415e-02,0.000e+00
2.854e-02,0.000e+00
3.293e-02,0.000e+00
3.733e-02,0.000e+00
4.172e-02,0.000e+00
4.611e-02,0.000e+00
5.050e-02,6.832e-03
5.489e-02,4.555e-03
5.928e-02,0.000e+00
6.367e-02,4.555e-03
6.806e-02,0.000e+00
7.245e-02,9.109e-03
7.685e-02,9.109e-03
8.124e-02,2.960e-02
8.563e-02,2.505e-02
9.002e-02,2.733e-02
9.441e-02,4.327e-02
9.880e-02,6.376e-02
1.032e-01,1.002e-01
1.076e-01,1.002e-01
1.120e-01,1.571e-01
1.164e-01,1.571e-01
1.208e-01,2.050e-01
1.251e-01,2.733e-01
1.295e-01,2.960e-01
1.339e-01,3.325e-01
1.383e-01,4.463e-01
1.427e-01,4.167e-01
1.471e-01,4.646e-01
1.515e-01,5.352e-01
1.559e-01,6.035e-01
1.603e-01,5.966e-01
1.647e-01,8.130e-01
1.691e-01,8.107e-01
1.735e-01,7.720e-01
1.778e-01,9.747e-01
1.822e-01,1.063e+00
1.866e-01,1.118e+00
1.910e-01,1.114e+00
1.954e-01,1.221e+00
1.998e-01,1.373e+00
2.042e-01,1.558e+00
2.086e-01,1.608e+00
2.130e-01,1.715e+00
2.174e-01,1.747e+00
2.218e-01,1.840e+00
2.261e-01,2.093e+00
2.305e-01,2.154e+00
2.349e-01,2.134e+00
2.393e-01,2.259e+00
2.437e-01,2.448e+00
2.481e-01,2.500e+00
2.525e-01,2.619e+00
2.569e-01,2.942e+00
2.613e-01,3.211e+00
2.657e-01,2.951e+00
2.701e-01,3.152e+00
2.745e-01,3.430e+00
2.788e-01,3.500e+00
2.832e-01,3.653e+00
2.876e-01,3.787e+00
2.920e-01,4.022e+00
2.964e-01,4.172e+00
3.008e-01,4.236e+00
3.052e-01,4.407e+00
3.096e-01,4.295e+00
3.140e-01,4.584e+00
3.184e-01,4.687e+00
3.228e-01,4.960e+00
3.271e-01,4.721e+00
3.315e-01,4.755e+00
3.359e-01,5.042e+00
3.403e-01,5.144e+00
3.447e-01,5.067e+00
3.491e-01,5.140e+00
3.535e-01,5.072e+00
3.579e-01,5.074e+00
3.623e-01,5.103e+00
3.667e-01,5.067e+00
3.711e-01,5.117e+00
3.754e-01,4.764e+00
3.798e-01,4.844e+00
3.842e-01,4.712e+00
3.886e-01,4.696e+00
3.930e-01,4.475e+00
3.974e-01,4.320e+00
4.018e-01,4.054e+00
4.062e-01,3.751e+00
4.106e-01,3.682e+00
4.150e-01,3.505e+00
4.194e-01,3.209e+00
4.238e-01,2.942e+00
4.281e-01,2.913e+00
4.325e-01,2.555e+00
4.369e-01,2.425e+00
4.413e-01,2.104e+00
4.457e-01,1.929e+00
4.501e-01,1.624e+00
4.545e-01,1.444e+00
4.589e-01,1.207e+00
4.633e-01,1.091e+00
4.677e-01,9.838e-01
4.721e-01,8.084e-01
4.764e-01,7.766e-01
4.808e-01,5.397e-01
4.852e-01,5.192e-01
4.896e-01,3.871e-01
4.940e-01,3.120e-01
4.984e-01,2.687e-01
5.028e-01,1.754e-01
5.072e-01,1.321e-01
5.116e-01,1.048e-01
5.160e-01,1.025e-01
5.204e-01,6.376e-02
5.247e-01,5.010e-02
5.291e-01,3.871e-02
5.335e-01,2.050e-02
5.379e-01,2.733e-02
5.423e-01,2.277e-03
5.467e-01,1.139e-02
5.511e-01,9.109e-03
5.555e-01,6.832e-03
5.599e-01,0.000e+00
5.643e-01,4.555e-03
5.687e-01,2.277e-03
5.731e-01,4.555e-03
5.774e-01,2.277e-03
5.818e-01,0.000e+00
5.862e-01,0.000e+00
5.906e-01,0.000e+00
5.950e-01,0.000e+00
5.994e-01,0.000e+00
6.038e-01,0.000e+00
6.082e-01,0.000e+00
6.126e-01,0.000e+00
6.170e-01,0.000e+00
6.214e-01,0.000e+00
6.257e-01,0.000e+00
6.301e-01,0.000e+00
6.345e-01,0.000e+00
6.389e-01,0.000e+00
6.433e-01,0.000e+00
6.477e-01,0.000e+00
6.521e-01,0.000e+00
6.565e-01,0.000e+00
6.609e-01,0.000e+00
6.653e-01,0.000e+00
6.697e-01,0.000e+00
6.740e-01,0.000e+00
6.784e-01,0.000e+00
6.828e-01,0.000e+00
6.872e-01,0.000e+00
6.916e-01,0.000e+00
6.960e-01,0.000e+00
7.004e-01,0.000e+00
7.048e-01,0.000e+00
7.092e-01,0.000e+00
7.136e-01,0.000e+00
7.180e-01,0.000e+00
7.224e-01,0.000e+00
7.267e-01,0.000e+00
7.311e-01,0.000e+00
7.355e-01,0.000e+00
7.399e-01,0.000e+00
7.443e-01,0.000e+00
7.487e-01,0.000e+00
7.531e-01,0.000e+00
7.575e-01,0.000e+00
7.619e-01,0.000e+00
7.663e-01,0.000e+00
7.707e-01,0.000e+00
7.750e-01,0.000e+00
7.794e-01,0.000e+00
7.838e-01,0.000e+00
7.882e-01,0.000e+00
7.926e-01,0.000e+00
7.970e-01,0.000e+00
8.014e-01,0.000e+00
8.058e-01,0.000e+00
8.102e-01,0.000e+00
8.146e-01,0.000e+00
8.190e-01,0.000e+00
8.234e-01,0.000e+00
8.277e-01,0.000e+00
8.321e-01,0.000e+00
8.365e-01,0.000e+00
8.409e-01,0.000e+00
8.453e-01,0.000e+00
8.497e-01,0.000e+00
8.541e-01,0.000e+00
8.585e-01,0.000e+00
8.629e-01,0.000e+00
8.673e-01,0.000e+00
8.717e-01,0.000e+00
8.760e-01,0.000e+00
