transmittance,probability_density
1.635e-01,0.000e+00
1.677e-01,0.000e+00
1.718e-01,0.000e+00
1.760e-01,0.000e+00
1.802e-01,0.000e+00
1.844e-01,0.000e+00
1.886e-01,0.000e+00
1.928e-01,0.000e+00
1.970e-01,0.000e+00
2.012e-01,0.000e+00
2.054e-01,0.000e+00
2.096e-01,0.000e+00
2.138e-01,0.000e+00
2.180e-01,0.000e+00
2.222e-01,0.000e+00
2.264e-01,0.000e+00
2.306e-01,0.000e+00
2.347e-01,0.000e+00
2.389e-01,0.000e+00
2.431e-01,0.000e+00
2.473e-01,0.000e+00
2.515e-01,0.000e+00
2.557e-01,0.000e+00
2.599e-01,0.000e+00
2.641e-01,0.000e+00
2.683e-01,0.000e+00
2.725e-01,0.000e+00
2.767e-01,0.000e+00
2.809e-01,0.000e+00
2.851e-01,0.000e+00
2.893e-01,0.000e+00
2.934e-01,0.000e+00
2.976e-01,0.000e+00
3.018e-01,0.000e+00
3.060e-01,0.000e+00
3.102e-01,0.000e+00
3.144e-01,0.000e+00
3.186e-01,0.000e+00
3.228e-01,0.000e+00
3.270e-01,0.000e+00
3.312e-01,0.000e+00
3.354e-01,0.000e+00
3.396e-01,0.000e+00
3.438e-01,0.000e+00
3.480e-01,0.000e+00
3.522e-01,2.385e-03
3.563e-01,0.000e+00
3.605e-01,0.000e+00
3.647e-01,0.000e+00
3.689e-01,0.000e+00
3.731e-01,0.000e+00
3.773e-01,0.000e+00
3.815e-01,0.000e+00
3.857e-01,0.000e+00
3.899e-01,0.000e+00
3.941e-01,2.385e-03
3.983e-01,0.000e+00
4.025e-01,0.000e+00
4.067e-01,0.000e+00
4.109e-01,0.000e+00
4.151e-01,2.385e-03
4.192e-01,0.000e+00
4.234e-01,2.385e-03
4.276e-01,0.000e+00
4.318e-01,0.000e+00
4.360e-01,0.000e+00
4.402e-01,2.385e-03
4.444e-01,0.000e+00
4.486e-01,0.000e+00
4.528e-01,7.154e-03
4.570e-01,0.000e+00
4.612e-01,0.000e+00
4.654e-01,2.385e-03
4.696e-01,0.000e+00
4.738e-01,0.000e+00
4.779e-01,2.385e-03
4.821e-01,0.000e+00
4.863e-01,4.770e-03
4.905e-01,2.385e-03
4.947e-01,4.770e-03
4.989e-01,2.385e-03
5.031e-01,0.000e+00
5.073e-01,2.385e-03
5.115e-01,2.385e-03
5.157e-01,0.000e+00
5.199e-01,4.770e-03
5.241e-01,4.770e-03
5.283e-01,7.154e-03
5.325e-01,7.154e-03
5.367e-01,2.385e-03
5.408e-01,1.669e-02
5.450e-01,1.908e-02
5.492e-01,9.539e-03
5.534e-01,1.431e-02
5.576e-01,1.908e-02
5.618e-01,1.908e-02
5.660e-01,1.908e-02
5.702e-01,1.908e-02
5.744e-01,1.908e-02
5.786e-01,2.862e-02
5.828e-01,3.100e-02
5.870e-01,2.862e-02
5.912e-01,4.054e-02
5.954e-01,4.770e-02
5.996e-01,2.385e-02
6.037e-01,3.100e-02
6.079e-01,2.862e-02
6.121e-01,5.247e-02
6.163e-01,6.678e-02
6.205e-01,7.154e-02
6.247e-01,8.108e-02
6.289e-01,5.485e-02
6.331e-01,5.962e-02
6.373e-01,1.002e-01
6.415e-01,6.916e-02
6.457e-01,6.678e-02
6.499e-01,6.678e-02
6.541e-01,1.025e-01
6.583e-01,1.216e-01
6.624e-01,1.359e-01
6.666e-01,1.431e-01
6.708e-01,1.479e-01
6.750e-01,1.479e-01
6.792e-01,1.336e-01
6.834e-01,2.051e-01
6.876e-01,1.669e-01
6.918e-01,1.836e-01
6.960e-01,1.932e-01
7.002e-01,1.956e-01
7.044e-01,2.385e-01
7.086e-01,2.194e-01
7.128e-01,2.576e-01
7.170e-01,2.838e-01
7.212e-01,3.601e-01
7.253e-01,3.076e-01
7.295e-01,3.363e-01
7.337e-01,3.339e-01
7.379e-01,3.935e-01
7.421e-01,4.102e-01
7.463e-01,4.340e-01
7.505e-01,4.722e-01
7.547e-01,4.817e-01
7.589e-01,5.127e-01
7.631e-01,5.533e-01
7.673e-01,6.534e-01
7.715e-01,6.821e-01
7.757e-01,6.964e-01
7.799e-01,7.226e-01
7.841e-01,7.679e-01
7.882e-01,8.776e-01
7.924e-01,8.323e-01
7.966e-01,9.945e-01
8.008e-01,1.090e+00
8.050e-01,1.073e+00
8.092e-01,1.161e+00
8.134e-01,1.214e+00
8.176e-01,1.393e+00
8.218e-01,1.438e+00
8.260e-01,1.543e+00
8.302e-01,1.629e+00
8.344e-01,1.801e+00
8.386e-01,1.793e+00
8.428e-01,2.051e+00
8.469e-01,2.089e+00
8.511e-01,2.368e+00
8.553e-01,2.564e+00
8.595e-01,2.728e+00
8.637e-01,2.907e+00
8.679e-01,3.162e+00
8.721e-01,3.224e+00
8.763e-01,3.537e+00
8.805e-01,3.840e+00
8.847e-01,4.049e+00
8.889e-01,4.393e+00
8.931e-01,4.731e+00
8.973e-01,5.056e+00
9.015e-01,5.552e+00
9.057e-01,5.874e+00
9.098e-01,6.119e+00
9.140e-01,6.551e+00
9.182e-01,7.081e+00
9.224e-01,7.329e+00
9.266e-01,8.008e+00
9.308e-01,8.621e+00
9.350e-01,8.960e+00
9.392e-01,9.301e+00
9.434e-01,9.690e+00
9.476e-01,9.871e+00
9.518e-01,1.057e+01
9.560e-01,1.034e+01
9.602e-01,1.010e+01
9.644e-01,9.642e+00
9.686e-01,9.034e+00
9.727e-01,7.870e+00
9.769e-01,5.673e+00
9.811e-01,3.976e+00
9.853e-01,1.982e+00
9.895e-01,5.628e-01
9.937e-01,7.154e-02
9.979e-01,0.000e+00
