transmittance,probability_density
1.829e-01,0.000e+00
1.870e-01,0.000e+00
1.911e-01,0.000e+00
1.952e-01,0.000e+00
1.992e-01,0.000e+00
2.033e-01,0.000e+00
2.074e-01,0.000e+00
2.115e-01,0.000e+00
2.156e-01,0.000e+00
2.197e-01,0.000e+00
2.238e-01,0.000e+00
2.279e-01,0.000e+00
2.320e-01,0.000e+00
2.361e-01,0.000e+00
2.402e-01,0.000e+00
2.443e-01,0.000e+00
2.484e-01,0.000e+00
2.525e-01,0.000e+00
2.566e-01,0.000e+00
2.607e-01,0.000e+00
2.648e-01,0.000e+00
2.689e-01,0.000e+00
2.730e-01,0.000e+00
2.771e-01,0.000e+00
2.812e-01,0.000e+00
2.853e-01,0.000e+00
2.894e-01,0.000e+00
2.935e-01,0.000e+00
2.976e-01,0.000e+00
3.016e-01,0.000e+00
3.057e-01,0.000e+00
3.098e-01,0.000e+00
3.139e-01,0.000e+00
3.180e-01,0.000e+00
3.221e-01,0.000e+00
3.262e-01,0.000e+00
3.303e-01,0.000e+00
3.344e-01,0.000e+00
3.385e-01,0.000e+00
3.426e-01,0.000e+00
3.467e-01,0.000e+00
3.508e-01,0.000e+00
3.549e-01,0.000e+00
3.590e-01,0.000e+00
3.631e-01,0.000e+00
3.672e-01,0.000e+00
3.713e-01,0.000e+00
3.754e-01,0.000e+00
3.795e-01,0.000e+00
3.836e-01,0.000e+00
3.877e-01,0.000e+00
3.918e-01,0.000e+00
3.959e-01,0.000e+00
3.999e-01,0.000e+00
4.040e-01,0.000e+00
4.081e-01,0.000e+00
4.122e-01,0.000e+00
4.163e-01,0.000e+00
4.204e-01,0.000e+00
4.245e-01,0.000e+00
4.286e-01,0.000e+00
4.327e-01,0.000e+00
4.368e-01,2.441e-03
4.409e-01,2.441e-03
4.450e-01,0.000e+00
4.491e-01,0.000e+00
4.532e-01,2.441e-03
4.573e-01,0.000e+00
4.614e-01,4.883e-03
4.655e-01,0.000e+00
4.696e-01,2.441e-03
4.737e-01,0.000e+00
4.778e-01,4.883e-03
4.819e-01,2.441e-03
4.860e-01,0.000e+00
4.901e-01,2.441e-03
4.942e-01,9.766e-03
4.983e-01,7.324e-03
5.023e-01,7.324e-03
5.064e-01,2.441e-03
5.105e-01,0.000e+00
5.146e-01,4.883e-03
5.187e-01,7.324e-03
5.228e-01,1.465e-02
5.269e-01,9.766e-03
5.310e-01,2.197e-02
5.351e-01,7.324e-03
5.392e-01,1.221e-02
5.433e-01,7.324e-03
5.474e-01,1.221e-02
5.515e-01,1.953e-02
5.556e-01,2.686e-02
5.597e-01,2.441e-02
5.638e-01,1.465e-02
5.679e-01,2.197e-02
5.720e-01,1.953e-02
5.761e-01,3.174e-02
5.802e-01,3.662e-02
5.843e-01,3.906e-02
5.884e-01,3.662e-02
5.925e-01,5.371e-02
5.966e-01,6.104e-02
6.006e-01,4.395e-02
6.047e-01,6.104e-02
6.088e-01,5.860e-02
6.129e-01,5.615e-02
6.170e-01,5.860e-02
6.211e-01,8.789e-02
6.252e-01,6.592e-02
6.293e-01,8.301e-02
6.334e-01,7.324e-02
6.375e-01,1.025e-01
6.416e-01,1.025e-01
6.457e-01,1.782e-01
6.498e-01,1.074e-01
6.539e-01,1.514e-01
6.580e-01,1.270e-01
6.621e-01,1.660e-01
6.662e-01,1.709e-01
6.703e-01,1.856e-01
6.744e-01,1.904e-01
6.785e-01,2.319e-01
6.826e-01,2.148e-01
6.867e-01,3.076e-01
6.908e-01,2.466e-01
6.949e-01,3.003e-01
6.990e-01,3.052e-01
7.030e-01,3.076e-01
7.071e-01,3.467e-01
7.112e-01,4.273e-01
7.153e-01,3.955e-01
7.194e-01,4.102e-01
7.235e-01,4.541e-01
7.276e-01,5.200e-01
7.317e-01,5.176e-01
7.358e-01,5.737e-01
7.399e-01,5.762e-01
7.440e-01,6.616e-01
7.481e-01,7.031e-01
7.522e-01,7.007e-01
7.563e-01,7.886e-01
7.604e-01,8.911e-01
7.645e-01,9.351e-01
7.686e-01,1.033e+00
7.727e-01,1.064e+00
7.768e-01,1.113e+00
7.809e-01,1.306e+00
7.850e-01,1.289e+00
7.891e-01,1.511e+00
7.932e-01,1.450e+00
7.973e-01,1.602e+00
8.013e-01,1.753e+00
8.054e-01,1.743e+00
8.095e-01,1.892e+00
8.136e-01,2.087e+00
8.177e-01,2.266e+00
8.218e-01,2.275e+00
8.259e-01,2.481e+00
8.300e-01,2.664e+00
8.341e-01,2.803e+00
8.382e-01,3.042e+00
8.423e-01,3.379e+00
8.464e-01,3.457e+00
8.505e-01,3.865e+00
8.546e-01,3.955e+00
8.587e-01,4.107e+00
8.628e-01,4.502e+00
8.669e-01,4.824e+00
8.710e-01,4.910e+00
8.751e-01,5.491e+00
8.792e-01,5.874e+00
8.833e-01,6.057e+00
8.874e-01,6.753e+00
8.915e-01,7.127e+00
8.956e-01,7.256e+00
8.997e-01,7.615e+00
9.037e-01,7.742e+00
9.078e-01,8.357e+00
9.119e-01,8.565e+00
9.160e-01,8.755e+00
9.201e-01,9.063e+00
9.242e-01,8.909e+00
9.283e-01,8.831e+00
9.324e-01,8.745e+00
9.365e-01,8.201e+00
9.406e-01,8.045e+00
9.447e-01,7.507e+00
9.488e-01,6.475e+00
9.529e-01,5.466e+00
9.570e-01,4.710e+00
9.611e-01,3.550e+00
9.652e-01,2.368e+00
9.693e-01,1.619e+00
9.734e-01,8.081e-01
9.775e-01,3.418e-01
9.816e-01,1.099e-01
9.857e-01,1.221e-02
9.898e-01,0.000e+00
9.939e-01,0.000e+00
9.980e-01,0.000e+00
