transmittance,probability_density
1.308e-04,2.332e+02
3.925e-04,1.710e+02
6.541e-04,1.406e+02
9.157e-04,1.236e+02
1.177e-03,1.143e+02
1.439e-03,1.073e+02
1.701e-03,1.011e+02
1.962e-03,9.651e+01
2.224e-03,9.394e+01
2.486e-03,8.899e+01
2.747e-03,8.748e+01
3.009e-03,8.647e+01
3.270e-03,8.360e+01
3.532e-03,8.080e+01
3.794e-03,7.903e+01
4.055e-03,7.745e+01
4.317e-03,7.479e+01
4.579e-03,7.432e+01
4.840e-03,7.198e+01
5.102e-03,7.092e+01
5.364e-03,6.854e+01
5.625e-03,6.599e+01
5.887e-03,6.641e+01
6.148e-03,6.348e+01
6.410e-03,6.060e+01
6.672e-03,6.151e+01
6.933e-03,6.089e+01
7.195e-03,5.623e+01
7.457e-03,5.508e+01
7.718e-03,5.426e+01
7.980e-03,5.319e+01
8.242e-03,4.999e+01
8.503e-03,5.013e+01
8.765e-03,4.815e+01
9.026e-03,4.537e+01
9.288e-03,4.268e+01
9.550e-03,4.315e+01
9.811e-03,4.142e+01
1.007e-02,3.956e+01
1.033e-02,3.802e+01
1.060e-02,3.628e+01
1.086e-02,3.451e+01
1.112e-02,3.451e+01
1.138e-02,3.212e+01
1.164e-02,2.921e+01
1.190e-02,2.807e+01
1.217e-02,2.717e+01
1.243e-02,2.675e+01
1.269e-02,2.618e+01
1.295e-02,2.359e+01
1.321e-02,2.366e+01
1.347e-02,2.209e+01
1.374e-02,2.088e+01
1.400e-02,1.903e+01
1.426e-02,1.950e+01
1.452e-02,1.906e+01
1.478e-02,1.731e+01
1.504e-02,1.565e+01
1.531e-02,1.562e+01
1.557e-02,1.383e+01
1.583e-02,1.295e+01
1.609e-02,1.341e+01
1.635e-02,1.104e+01
1.661e-02,1.155e+01
1.688e-02,1.086e+01
1.714e-02,9.940e+00
1.740e-02,8.863e+00
1.766e-02,9.127e+00
1.792e-02,8.337e+00
1.818e-02,7.913e+00
1.845e-02,7.031e+00
1.871e-02,6.985e+00
1.897e-02,7.123e+00
1.923e-02,6.344e+00
1.949e-02,5.439e+00
1.975e-02,5.405e+00
2.002e-02,4.764e+00
2.028e-02,4.455e+00
2.054e-02,4.329e+00
2.080e-02,4.363e+00
2.106e-02,3.848e+00
2.132e-02,3.378e+00
2.158e-02,3.321e+00
2.185e-02,3.092e+00
2.211e-02,2.840e+00
2.237e-02,2.577e+00
2.263e-02,2.703e+00
2.289e-02,2.279e+00
2.315e-02,2.474e+00
2.342e-02,1.867e+00
2.368e-02,1.878e+00
2.394e-02,1.901e+00
2.420e-02,1.592e+00
2.446e-02,1.328e+00
2.472e-02,1.443e+00
2.499e-02,1.386e+00
2.525e-02,1.122e+00
2.551e-02,1.305e+00
2.577e-02,8.818e-01
2.603e-02,9.963e-01
2.629e-02,7.902e-01
2.656e-02,8.818e-01
2.682e-02,8.131e-01
2.708e-02,7.443e-01
2.734e-02,7.214e-01
2.760e-02,6.642e-01
2.786e-02,5.611e-01
2.813e-02,6.069e-01
2.839e-02,5.726e-01
2.865e-02,4.466e-01
2.891e-02,5.153e-01
2.917e-02,2.863e-01
2.943e-02,4.352e-01
2.970e-02,2.634e-01
2.996e-02,3.779e-01
3.022e-02,3.092e-01
3.048e-02,2.519e-01
3.074e-02,3.092e-01
3.100e-02,2.634e-01
3.127e-02,3.321e-01
3.153e-02,1.603e-01
3.179e-02,8.016e-02
3.205e-02,1.489e-01
3.231e-02,1.489e-01
3.257e-02,1.603e-01
3.284e-02,1.374e-01
3.310e-02,1.718e-01
3.336e-02,9.161e-02
3.362e-02,8.016e-02
3.388e-02,5.726e-02
3.414e-02,1.374e-01
3.441e-02,6.871e-02
3.467e-02,4.581e-02
3.493e-02,1.145e-01
3.519e-02,6.871e-02
3.545e-02,1.260e-01
3.571e-02,4.581e-02
3.597e-02,3.435e-02
3.624e-02,5.726e-02
3.650e-02,5.726e-02
3.676e-02,1.145e-02
3.702e-02,3.435e-02
3.728e-02,2.290e-02
3.754e-02,1.145e-02
3.781e-02,4.581e-02
3.807e-02,2.290e-02
3.833e-02,1.145e-02
3.859e-02,2.290e-02
3.885e-02,3.435e-02
3.911e-02,3.435e-02
3.938e-02,0.000e+00
3.964e-02,1.145e-02
3.990e-02,0.000e+00
4.016e-02,4.581e-02
4.042e-02,0.000e+00
4.068e-02,1.145e-02
4.095e-02,0.000e+00
4.121e-02,1.145e-02
4.147e-02,0.000e+00
4.173e-02,0.000e+00
4.199e-02,1.145e-02
4.225e-02,0.000e+00
4.252e-02,0.000e+00
4.278e-02,1.145e-02
4.304e-02,0.000e+00
4.330e-02,0.000e+00
4.356e-02,2.290e-02
4.382e-02,1.145e-02
4.409e-02,1.145e-02
4.435e-02,1.145e-02
4.461e-02,0.000e+00
4.487e-02,0.000e+00
4.513e-02,0.000e+00
4.539e-02,0.000e+00
4.566e-02,0.000e+00
4.592e-02,0.000e+00
4.618e-02,0.000e+00
4.644e-02,0.000e+00
4.670e-02,1.145e-02
4.696e-02,0.000e+00
4.723e-02,0.000e+00
4.749e-02,1.145e-02
4.775e-02,0.000e+00
4.801e-02,0.000e+00
4.827e-02,0.000e+00
4.853e-02,0.000e+00
4.879e-02,0.000e+00
4.906e-02,0.000e+00
4.932e-02,0.000e+00
4.958e-02,0.000e+00
4.984e-02,0.000e+00
5.010e-02,0.000e+00
5.036e-02,0.000e+00
5.063e-02,0.000e+00
5.089e-02,0.000e+00
5.115e-02,0.000e+00
5.141e-02,0.000e+00
5.167e-02,0.000e+00
5.193e-02,0.000e+00
5.220e-02,0.000e+00
