transmittance,probability_density
3.495e-05,9.325e+02
1.049e-04,6.550e+02
1.748e-04,5.345e+02
2.447e-04,4.757e+02
3.146e-04,4.370e+02
3.845e-04,4.037e+02
4.544e-04,3.909e+02
5.243e-04,3.705e+02
5.942e-04,3.541e+02
6.641e-04,3.454e+02
7.340e-04,3.300e+02
8.039e-04,3.316e+02
8.738e-04,3.130e+02
9.437e-04,3.053e+02
1.014e-03,2.986e+02
1.084e-03,2.982e+02
1.153e-03,2.832e+02
1.223e-03,2.822e+02
1.293e-03,2.730e+02
1.363e-03,2.647e+02
1.433e-03,2.582e+02
1.503e-03,2.480e+02
1.573e-03,2.454e+02
1.643e-03,2.378e+02
1.713e-03,2.313e+02
1.783e-03,2.321e+02
1.852e-03,2.177e+02
1.922e-03,2.133e+02
1.992e-03,2.088e+02
2.062e-03,1.991e+02
2.132e-03,1.941e+02
2.202e-03,1.867e+02
2.272e-03,1.792e+02
2.342e-03,1.786e+02
2.412e-03,1.654e+02
2.482e-03,1.579e+02
2.552e-03,1.589e+02
2.621e-03,1.513e+02
2.691e-03,1.468e+02
2.761e-03,1.346e+02
2.831e-03,1.358e+02
2.901e-03,1.248e+02
2.971e-03,1.185e+02
3.041e-03,1.100e+02
3.111e-03,1.080e+02
3.181e-03,1.046e+02
3.251e-03,1.028e+02
3.320e-03,9.292e+01
3.390e-03,9.163e+01
3.460e-03,8.632e+01
3.530e-03,8.371e+01
3.600e-03,8.002e+01
3.670e-03,7.153e+01
3.740e-03,7.209e+01
3.810e-03,6.888e+01
3.880e-03,6.335e+01
3.950e-03,6.206e+01
4.020e-03,5.477e+01
4.089e-03,5.366e+01
4.159e-03,4.907e+01
4.229e-03,4.642e+01
4.299e-03,4.612e+01
4.369e-03,4.102e+01
4.439e-03,3.849e+01
4.509e-03,3.549e+01
4.579e-03,3.635e+01
4.649e-03,3.283e+01
4.719e-03,2.979e+01
4.788e-03,2.932e+01
4.858e-03,2.782e+01
4.928e-03,2.499e+01
4.998e-03,2.559e+01
5.068e-03,2.284e+01
5.138e-03,2.134e+01
5.208e-03,1.847e+01
5.278e-03,1.766e+01
5.348e-03,1.616e+01
5.418e-03,1.599e+01
5.488e-03,1.637e+01
5.557e-03,1.462e+01
5.627e-03,1.402e+01
5.697e-03,1.097e+01
5.767e-03,1.016e+01
5.837e-03,1.007e+01
5.907e-03,1.067e+01
5.977e-03,1.024e+01
6.047e-03,8.443e+00
6.117e-03,8.358e+00
6.187e-03,7.286e+00
6.256e-03,7.715e+00
6.326e-03,6.172e+00
6.396e-03,6.215e+00
6.466e-03,5.700e+00
6.536e-03,4.715e+00
6.606e-03,4.157e+00
6.676e-03,4.672e+00
6.746e-03,4.286e+00
6.816e-03,4.415e+00
6.886e-03,2.914e+00
6.956e-03,3.386e+00
7.025e-03,3.343e+00
7.095e-03,2.743e+00
7.165e-03,2.786e+00
7.235e-03,2.529e+00
7.305e-03,2.357e+00
7.375e-03,2.614e+00
7.445e-03,1.886e+00
7.515e-03,2.186e+00
7.585e-03,1.586e+00
7.655e-03,1.800e+00
7.725e-03,1.543e+00
7.794e-03,1.543e+00
7.864e-03,1.286e+00
7.934e-03,1.243e+00
8.004e-03,6.000e-01
8.074e-03,1.114e+00
8.144e-03,1.114e+00
8.214e-03,1.114e+00
8.284e-03,9.001e-01
8.354e-03,1.029e+00
8.424e-03,6.429e-01
8.493e-03,4.715e-01
8.563e-03,3.000e-01
8.633e-03,5.572e-01
8.703e-03,4.715e-01
8.773e-03,7.286e-01
8.843e-03,4.286e-01
8.913e-03,2.143e-01
8.983e-03,1.286e-01
9.053e-03,3.429e-01
9.123e-03,3.429e-01
9.193e-03,2.572e-01
9.262e-03,6.000e-01
9.332e-03,1.714e-01
9.402e-03,2.572e-01
9.472e-03,3.857e-01
9.542e-03,3.857e-01
9.612e-03,4.286e-02
9.682e-03,8.572e-02
9.752e-03,8.572e-02
9.822e-03,1.286e-01
9.892e-03,1.714e-01
9.961e-03,8.572e-02
1.003e-02,8.572e-02
1.010e-02,8.572e-02
1.017e-02,1.286e-01
1.024e-02,0.000e+00
1.031e-02,1.286e-01
1.038e-02,1.714e-01
1.045e-02,4.286e-02
1.052e-02,8.572e-02
1.059e-02,8.572e-02
1.066e-02,4.286e-02
1.073e-02,0.000e+00
1.080e-02,4.286e-02
1.087e-02,0.000e+00
1.094e-02,0.000e+00
1.101e-02,4.286e-02
1.108e-02,0.000e+00
1.115e-02,4.286e-02
1.122e-02,4.286e-02
1.129e-02,0.000e+00
1.136e-02,0.000e+00
1.143e-02,4.286e-02
1.150e-02,0.000e+00
1.157e-02,0.000e+00
1.164e-02,4.286e-02
1.171e-02,4.286e-02
1.178e-02,0.000e+00
1.185e-02,8.572e-02
1.192e-02,0.000e+00
1.199e-02,4.286e-02
1.206e-02,0.000e+00
1.213e-02,0.000e+00
1.220e-02,0.000e+00
1.227e-02,0.000e+00
1.234e-02,0.000e+00
1.241e-02,4.286e-02
1.248e-02,0.000e+00
1.255e-02,0.000e+00
1.262e-02,0.000e+00
1.269e-02,4.286e-02
1.276e-02,0.000e+00
1.283e-02,0.000e+00
1.290e-02,0.000e+00
1.297e-02,0.000e+00
1.304e-02,0.000e+00
1.311e-02,0.000e+00
1.318e-02,0.000e+00
1.325e-02,0.000e+00
1.332e-02,0.000e+00
1.339e-02,0.000e+00
1.346e-02,0.000e+00
1.353e-02,0.000e+00
1.360e-02,0.000e+00
1.367e-02,0.000e+00
1.374e-02,0.000e+00
1.381e-02,0.000e+00
1.388e-02,0.000e+00
1.395e-02,0.000e+00
