transmittance,probability_density
2.245e-03,2.228e-03
6.734e-03,8.911e-03
1.122e-02,2.451e-02
1.571e-02,3.342e-02
2.020e-02,6.683e-02
2.469e-02,8.020e-02
2.918e-02,1.092e-01
3.367e-02,1.203e-01
3.816e-02,1.827e-01
4.265e-02,2.629e-01
4.714e-02,3.253e-01
5.163e-02,3.765e-01
5.612e-02,4.344e-01
6.061e-02,5.280e-01
6.510e-02,5.503e-01
6.959e-02,7.730e-01
7.408e-02,7.864e-01
7.857e-02,8.800e-01
8.306e-02,1.025e+00
8.755e-02,1.187e+00
9.204e-02,1.285e+00
9.653e-02,1.571e+00
1.010e-01,1.624e+00
1.055e-01,1.902e+00
1.100e-01,2.076e+00
1.145e-01,2.330e+00
1.190e-01,2.375e+00
1.235e-01,2.845e+00
1.280e-01,3.032e+00
1.324e-01,3.482e+00
1.369e-01,3.629e+00
1.414e-01,3.925e+00
1.459e-01,4.291e+00
1.504e-01,4.571e+00
1.549e-01,4.914e+00
1.594e-01,5.006e+00
1.639e-01,5.420e+00
1.684e-01,5.690e+00
1.729e-01,5.843e+00
1.773e-01,5.961e+00
1.818e-01,6.224e+00
1.863e-01,6.445e+00
1.908e-01,6.587e+00
1.953e-01,6.616e+00
1.998e-01,6.505e+00
2.043e-01,6.436e+00
2.088e-01,6.229e+00
2.133e-01,6.345e+00
2.177e-01,6.146e+00
2.222e-01,6.157e+00
2.267e-01,5.950e+00
2.312e-01,5.491e+00
2.357e-01,5.438e+00
2.402e-01,5.284e+00
2.447e-01,4.790e+00
2.492e-01,4.758e+00
2.537e-01,4.244e+00
2.582e-01,3.981e+00
2.626e-01,3.923e+00
2.671e-01,3.600e+00
2.716e-01,3.123e+00
2.761e-01,2.978e+00
2.806e-01,2.771e+00
2.851e-01,2.702e+00
2.896e-01,2.355e+00
2.941e-01,2.123e+00
2.986e-01,1.936e+00
3.031e-01,1.644e+00
3.075e-01,1.573e+00
3.120e-01,1.403e+00
3.165e-01,1.203e+00
3.210e-01,9.847e-01
3.255e-01,9.178e-01
3.300e-01,8.154e-01
3.345e-01,6.928e-01
3.390e-01,6.928e-01
3.435e-01,5.748e-01
3.479e-01,5.035e-01
3.524e-01,4.433e-01
3.569e-01,3.587e-01
3.614e-01,2.762e-01
3.659e-01,2.985e-01
3.704e-01,2.673e-01
3.749e-01,1.916e-01
3.794e-01,1.559e-01
3.839e-01,1.582e-01
3.884e-01,1.515e-01
3.928e-01,1.448e-01
3.973e-01,9.357e-02
4.018e-01,9.802e-02
4.063e-01,5.569e-02
4.108e-01,6.460e-02
4.153e-01,4.233e-02
4.198e-01,7.129e-02
4.243e-01,3.119e-02
4.288e-01,3.119e-02
4.333e-01,2.228e-02
4.377e-01,2.005e-02
4.422e-01,2.228e-02
4.467e-01,1.114e-02
4.512e-01,1.114e-02
4.557e-01,8.911e-03
4.602e-01,4.455e-03
4.647e-01,2.228e-03
4.692e-01,4.455e-03
4.737e-01,6.683e-03
4.781e-01,4.455e-03
4.826e-01,2.228e-03
4.871e-01,0.000e+00
4.916e-01,0.000e+00
4.961e-01,2.228e-03
5.006e-01,0.000e+00
5.051e-01,0.000e+00
5.096e-01,0.000e+00
5.141e-01,2.228e-03
5.186e-01,0.000e+00
5.230e-01,0.000e+00
5.275e-01,0.000e+00
5.320e-01,0.000e+00
5.365e-01,0.000e+00
5.410e-01,0.000e+00
5.455e-01,0.000e+00
5.500e-01,0.000e+00
5.545e-01,0.000e+00
5.590e-01,0.000e+00
5.635e-01,0.000e+00
5.679e-01,0.000e+00
5.724e-01,0.000e+00
5.769e-01,0.000e+00
5.814e-01,0.000e+00
5.859e-01,0.000e+00
5.904e-01,0.000e+00
5.949e-01,0.000e+00
5.994e-01,0.000e+00
6.039e-01,0.000e+00
6.083e-01,0.000e+00
6.128e-01,0.000e+00
6.173e-01,0.000e+00
6.218e-01,0.000e+00
6.263e-01,0.000e+00
6.308e-01,0.000e+00
6.353e-01,0.000e+00
6.398e-01,0.000e+00
6.443e-01,0.000e+00
6.488e-01,0.000e+00
6.532e-01,0.000e+00
6.577e-01,0.000e+00
6.622e-01,0.000e+00
6.667e-01,0.000e+00
6.712e-01,0.000e+00
6.757e-01,0.000e+00
6.802e-01,0.000e+00
6.847e-01,0.000e+00
6.892e-01,0.000e+00
6.937e-01,0.000e+00
6.981e-01,0.000e+00
7.026e-01,0.000e+00
7.071e-01,0.000e+00
7.116e-01,0.000e+00
7.161e-01,0.000e+00
7.206e-01,0.000e+00
7.251e-01,0.000e+00
7.296e-01,0.000e+00
7.341e-01,0.000e+00
7.385e-01,0.000e+00
7.430e-01,0.000e+00
7.475e-01,0.000e+00
7.520e-01,0.000e+00
7.565e-01,0.000e+00
7.610e-01,0.000e+00
7.655e-01,0.000e+00
7.700e-01,0.000e+00
7.745e-01,0.000e+00
7.790e-01,0.000e+00
7.834e-01,0.000e+00
7.879e-01,0.000e+00
7.924e-01,0.000e+00
7.969e-01,0.000e+00
8.014e-01,0.000e+00
8.059e-01,0.000e+00
8.104e-01,0.000e+00
8.149e-01,0.000e+00
8.194e-01,0.000e+00
8.239e-01,0.000e+00
8.283e-01,0.000e+00
8.328e-01,0.000e+00
8.373e-01,0.000e+00
8.418e-01,0.000e+00
8.463e-01,0.000e+00
8.508e-01,0.000e+00
8.553e-01,0.000e+00
8.598e-01,0.000e+00
8.643e-01,0.000e+00
8.687e-01,0.000e+00
8.732e-01,0.000e+00
8.777e-01,0.000e+00
8.822e-01,0.000e+00
8.867e-01,0.000e+00
8.912e-01,0.000e+00
8.957e-01,0.000e+00
