transmittance,probability_density
1.815e-03,2.204e-02
5.446e-03,8.540e-02
9.076e-03,1.653e-01
1.271e-02,2.645e-01
1.634e-02,3.940e-01
1.997e-02,6.309e-01
2.360e-02,8.182e-01
2.723e-02,1.138e+00
3.086e-02,1.278e+00
3.449e-02,1.771e+00
3.812e-02,2.052e+00
4.175e-02,2.466e+00
4.538e-02,2.794e+00
4.901e-02,3.174e+00
5.264e-02,4.006e+00
5.627e-02,4.645e+00
5.990e-02,5.480e+00
6.353e-02,6.215e+00
6.717e-02,7.116e+00
7.080e-02,7.761e+00
7.443e-02,8.777e+00
7.806e-02,9.359e+00
8.169e-02,1.011e+01
8.532e-02,1.104e+01
8.895e-02,1.151e+01
9.258e-02,1.203e+01
9.621e-02,1.206e+01
9.984e-02,1.205e+01
1.035e-01,1.209e+01
1.071e-01,1.156e+01
1.107e-01,1.123e+01
1.144e-01,1.076e+01
1.180e-01,1.047e+01
1.216e-01,9.678e+00
1.253e-01,8.604e+00
1.289e-01,8.105e+00
1.325e-01,7.042e+00
1.361e-01,6.339e+00
1.398e-01,5.785e+00
1.434e-01,5.102e+00
1.470e-01,4.482e+00
1.507e-01,3.907e+00
1.543e-01,3.510e+00
1.579e-01,2.824e+00
1.616e-01,2.389e+00
1.652e-01,2.168e+00
1.688e-01,1.700e+00
1.725e-01,1.477e+00
1.761e-01,1.149e+00
1.797e-01,1.061e+00
1.833e-01,9.450e-01
1.870e-01,7.907e-01
1.906e-01,5.868e-01
1.942e-01,5.179e-01
1.979e-01,3.940e-01
2.015e-01,2.672e-01
2.051e-01,2.424e-01
2.088e-01,1.984e-01
2.124e-01,1.460e-01
2.160e-01,1.130e-01
2.196e-01,1.295e-01
2.233e-01,7.989e-02
2.269e-01,7.714e-02
2.305e-01,7.714e-02
2.342e-01,3.857e-02
2.378e-01,3.030e-02
2.414e-01,3.030e-02
2.451e-01,1.928e-02
2.487e-01,3.030e-02
2.523e-01,1.653e-02
2.560e-01,1.653e-02
2.596e-01,8.265e-03
2.632e-01,8.265e-03
2.668e-01,5.510e-03
2.705e-01,2.755e-03
2.741e-01,2.755e-03
2.777e-01,2.755e-03
2.814e-01,0.000e+00
2.850e-01,1.102e-02
2.886e-01,0.000e+00
2.923e-01,0.000e+00
2.959e-01,0.000e+00
2.995e-01,2.755e-03
3.032e-01,0.000e+00
3.068e-01,0.000e+00
3.104e-01,0.000e+00
3.140e-01,0.000e+00
3.177e-01,0.000e+00
3.213e-01,0.000e+00
3.249e-01,2.755e-03
3.286e-01,0.000e+00
3.322e-01,0.000e+00
3.358e-01,0.000e+00
3.395e-01,0.000e+00
3.431e-01,0.000e+00
3.467e-01,0.000e+00
3.503e-01,0.000e+00
3.540e-01,0.000e+00
3.576e-01,0.000e+00
3.612e-01,0.000e+00
3.649e-01,0.000e+00
3.685e-01,2.755e-03
3.721e-01,0.000e+00
3.758e-01,0.000e+00
3.794e-01,0.000e+00
3.830e-01,0.000e+00
3.867e-01,0.000e+00
3.903e-01,0.000e+00
3.939e-01,0.000e+00
3.975e-01,0.000e+00
4.012e-01,0.000e+00
4.048e-01,0.000e+00
4.084e-01,0.000e+00
4.121e-01,0.000e+00
4.157e-01,0.000e+00
4.193e-01,0.000e+00
4.230e-01,0.000e+00
4.266e-01,0.000e+00
4.302e-01,0.000e+00
4.339e-01,0.000e+00
4.375e-01,0.000e+00
4.411e-01,0.000e+00
4.447e-01,0.000e+00
4.484e-01,0.000e+00
4.520e-01,0.000e+00
4.556e-01,0.000e+00
4.593e-01,0.000e+00
4.629e-01,0.000e+00
4.665e-01,0.000e+00
4.702e-01,0.000e+00
4.738e-01,0.000e+00
4.774e-01,0.000e+00
4.810e-01,0.000e+00
4.847e-01,0.000e+00
4.883e-01,0.000e+00
4.919e-01,0.000e+00
4.956e-01,0.000e+00
4.992e-01,0.000e+00
5.028e-01,0.000e+00
5.065e-01,0.000e+00
5.101e-01,0.000e+00
5.137e-01,0.000e+00
5.174e-01,0.000e+00
5.210e-01,0.000e+00
5.246e-01,0.000e+00
5.282e-01,0.000e+00
5.319e-01,0.000e+00
5.355e-01,0.000e+00
5.391e-01,0.000e+00
5.428e-01,0.000e+00
5.464e-01,0.000e+00
5.500e-01,0.000e+00
5.537e-01,0.000e+00
5.573e-01,0.000e+00
5.609e-01,0.000e+00
5.646e-01,0.000e+00
5.682e-01,0.000e+00
5.718e-01,0.000e+00
5.754e-01,0.000e+00
5.791e-01,0.000e+00
5.827e-01,0.000e+00
5.863e-01,0.000e+00
5.900e-01,0.000e+00
5.936e-01,0.000e+00
5.972e-01,0.000e+00
6.009e-01,0.000e+00
6.045e-01,0.000e+00
6.081e-01,0.000e+00
6.117e-01,0.000e+00
6.154e-01,0.000e+00
6.190e-01,0.000e+00
6.226e-01,0.000e+00
6.263e-01,0.000e+00
6.299e-01,0.000e+00
6.335e-01,0.000e+00
6.372e-01,0.000e+00
6.408e-01,0.000e+00
6.444e-01,0.000e+00
6.481e-01,0.000e+00
6.517e-01,0.000e+00
6.553e-01,0.000e+00
6.589e-01,0.000e+00
6.626e-01,0.000e+00
6.662e-01,0.000e+00
6.698e-01,0.000e+00
6.735e-01,0.000e+00
6.771e-01,0.000e+00
6.807e-01,0.000e+00
6.844e-01,0.000e+00
6.880e-01,0.000e+00
6.916e-01,0.000e+00
6.953e-01,0.000e+00
6.989e-01,0.000e+00
7.025e-01,0.000e+00
7.061e-01,0.000e+00
7.098e-01,0.000e+00
7.134e-01,0.000e+00
7.170e-01,0.000e+00
7.207e-01,0.000e+00
7.243e-01,0.000e+00
