transmittance,probability_density
1.673e-01,0.000e+00
1.714e-01,0.000e+00
1.756e-01,0.000e+00
1.798e-01,0.000e+00
1.840e-01,0.000e+00
1.881e-01,0.000e+00
1.923e-01,0.000e+00
1.965e-01,0.000e+00
2.007e-01,0.000e+00
2.048e-01,0.000e+00
2.090e-01,0.000e+00
2.132e-01,0.000e+00
2.174e-01,0.000e+00
2.215e-01,0.000e+00
2.257e-01,0.000e+00
2.299e-01,0.000e+00
2.341e-01,0.000e+00
2.382e-01,0.000e+00
2.424e-01,0.000e+00
2.466e-01,0.000e+00
2.508e-01,0.000e+00
2.549e-01,0.000e+00
2.591e-01,0.000e+00
2.633e-01,0.000e+00
2.674e-01,0.000e+00
2.716e-01,0.000e+00
2.758e-01,0.000e+00
2.800e-01,0.000e+00
2.841e-01,0.000e+00
2.883e-01,0.000e+00
2.925e-01,0.000e+00
2.967e-01,0.000e+00
3.008e-01,0.000e+00
3.050e-01,0.000e+00
3.092e-01,0.000e+00
3.134e-01,0.000e+00
3.175e-01,0.000e+00
3.217e-01,0.000e+00
3.259e-01,0.000e+00
3.301e-01,0.000e+00
3.342e-01,0.000e+00
3.384e-01,0.000e+00
3.426e-01,0.000e+00
3.468e-01,0.000e+00
3.509e-01,0.000e+00
3.551e-01,0.000e+00
3.593e-01,0.000e+00
3.635e-01,0.000e+00
3.676e-01,0.000e+00
3.718e-01,0.000e+00
3.760e-01,0.000e+00
3.801e-01,0.000e+00
3.843e-01,0.000e+00
3.885e-01,0.000e+00
3.927e-01,0.000e+00
3.968e-01,0.000e+00
4.010e-01,0.000e+00
4.052e-01,0.000e+00
4.094e-01,0.000e+00
4.135e-01,0.000e+00
4.177e-01,0.000e+00
4.219e-01,0.000e+00
4.261e-01,0.000e+00
4.302e-01,0.000e+00
4.344e-01,0.000e+00
4.386e-01,0.000e+00
4.428e-01,0.000e+00
4.469e-01,0.000e+00
4.511e-01,0.000e+00
4.553e-01,0.000e+00
4.595e-01,0.000e+00
4.636e-01,0.000e+00
4.678e-01,0.000e+00
4.720e-01,0.000e+00
4.762e-01,0.000e+00
4.803e-01,0.000e+00
4.845e-01,0.000e+00
4.887e-01,2.396e-03
4.928e-01,2.396e-03
4.970e-01,2.396e-03
5.012e-01,0.000e+00
5.054e-01,0.000e+00
5.095e-01,0.000e+00
5.137e-01,0.000e+00
5.179e-01,2.396e-03
5.221e-01,2.396e-03
5.262e-01,0.000e+00
5.304e-01,2.396e-03
5.346e-01,2.396e-03
5.388e-01,2.396e-03
5.429e-01,0.000e+00
5.471e-01,7.187e-03
5.513e-01,0.000e+00
5.555e-01,2.396e-03
5.596e-01,4.791e-03
5.638e-01,7.187e-03
5.680e-01,2.396e-03
5.722e-01,0.000e+00
5.763e-01,2.396e-03
5.805e-01,7.187e-03
5.847e-01,9.583e-03
5.889e-01,1.198e-02
5.930e-01,9.583e-03
5.972e-01,0.000e+00
6.014e-01,1.677e-02
6.055e-01,9.583e-03
6.097e-01,1.917e-02
6.139e-01,2.875e-02
6.181e-01,1.437e-02
6.222e-01,1.917e-02
6.264e-01,3.114e-02
6.306e-01,3.354e-02
6.348e-01,2.156e-02
6.389e-01,1.677e-02
6.431e-01,3.833e-02
6.473e-01,5.031e-02
6.515e-01,2.635e-02
6.556e-01,4.552e-02
6.598e-01,4.312e-02
6.640e-01,5.271e-02
6.682e-01,3.833e-02
6.723e-01,5.271e-02
6.765e-01,6.229e-02
6.807e-01,5.510e-02
6.849e-01,9.343e-02
6.890e-01,5.510e-02
6.932e-01,7.187e-02
6.974e-01,1.126e-01
7.016e-01,7.666e-02
7.057e-01,1.006e-01
7.099e-01,9.583e-02
7.141e-01,8.864e-02
7.182e-01,1.198e-01
7.224e-01,1.461e-01
7.266e-01,1.126e-01
7.308e-01,1.557e-01
7.349e-01,1.749e-01
7.391e-01,1.605e-01
7.433e-01,2.036e-01
7.475e-01,1.773e-01
7.516e-01,2.204e-01
7.558e-01,1.988e-01
7.600e-01,2.108e-01
7.642e-01,2.516e-01
7.683e-01,3.354e-01
7.725e-01,3.210e-01
7.767e-01,3.330e-01
7.809e-01,3.067e-01
7.850e-01,4.001e-01
7.892e-01,4.552e-01
7.934e-01,4.360e-01
7.976e-01,4.336e-01
8.017e-01,5.079e-01
8.059e-01,5.510e-01
8.101e-01,6.133e-01
8.143e-01,6.492e-01
8.184e-01,6.301e-01
8.226e-01,7.091e-01
8.268e-01,7.427e-01
8.309e-01,7.786e-01
8.351e-01,8.457e-01
8.393e-01,9.343e-01
8.435e-01,1.047e+00
8.476e-01,1.148e+00
8.518e-01,1.188e+00
8.560e-01,1.181e+00
8.602e-01,1.366e+00
8.643e-01,1.483e+00
8.685e-01,1.572e+00
8.727e-01,1.679e+00
8.769e-01,1.938e+00
8.810e-01,2.060e+00
8.852e-01,2.068e+00
8.894e-01,2.547e+00
8.936e-01,2.638e+00
8.977e-01,2.920e+00
9.019e-01,3.263e+00
9.061e-01,3.500e+00
9.103e-01,3.639e+00
9.144e-01,4.147e+00
9.186e-01,4.523e+00
9.228e-01,4.954e+00
9.270e-01,5.752e+00
9.311e-01,6.195e+00
9.353e-01,6.902e+00
9.395e-01,7.345e+00
9.436e-01,8.500e+00
9.478e-01,9.224e+00
9.520e-01,1.020e+01
9.562e-01,1.109e+01
9.603e-01,1.244e+01
9.645e-01,1.370e+01
9.687e-01,1.501e+01
9.729e-01,1.566e+01
9.770e-01,1.616e+01
9.812e-01,1.497e+01
9.854e-01,1.280e+01
9.896e-01,8.323e+00
9.937e-01,2.717e+00
9.979e-01,1.437e-01
